Manaus - AM                    UNIVAP-03  <275> 1 Min. Reported data

 DD MM YYYY  HH MM   D(Deg)  H(nT)   Z(nT)   I(Deg)   F(nT)

 01 10 2016  00 00  -15.5172 26082.1   3405.7   7.4394 26303.5
 01 10 2016  00 01  -15.5190 26082.3   3405.8   7.4395 26303.7
 01 10 2016  00 02  -15.5181 26083.2   3405.9   7.4394 26304.7
 01 10 2016  00 03  -15.5176 26084.1   3406.0   7.4395 26305.5
 01 10 2016  00 04  -15.5174 26084.1   3407.7   7.4432 26305.8
 01 10 2016  00 05  -15.5176 26084.8   3407.5   7.4425 26306.4
 01 10 2016  00 06  -15.5179 26085.6   3405.5   7.4380 26307.0
 01 10 2016  00 07  -15.5170 26086.3   3407.4   7.4420 26307.9
 01 10 2016  00 08  -15.5171 26086.6   3407.9   7.4428 26308.3
 01 10 2016  00 09  -15.5171 26087.1   3408.0   7.4430 26308.8
 01 10 2016  00 10  -15.5163 26087.5   3407.0   7.4406 26309.0
 01 10 2016  00 11  -15.5159 26087.7   3406.9   7.4404 26309.3
 01 10 2016  00 12  -15.5169 26088.0   3406.4   7.4393 26309.4
 01 10 2016  00 13  -15.5168 26088.2   3406.7   7.4399 26309.7
 01 10 2016  00 14  -15.5167 26088.6   3405.8   7.4377 26310.0
 01 10 2016  00 15  -15.5162 26088.9   3406.5   7.4392 26310.3
 01 10 2016  00 16  -15.5157 26089.1   3407.3   7.4409 26310.6
 01 10 2016  00 17  -15.5152 26089.4   3406.8   7.4397 26310.9
 01 10 2016  00 18  -15.5159 26089.4   3406.7   7.4395 26310.9
 01 10 2016  00 19  -15.5164 26089.5   3405.7   7.4373 26310.9
 01 10 2016  00 20  -15.5152 26090.0   3406.9   7.4398 26311.5
 01 10 2016  00 21  -15.5158 26090.1   3407.1   7.4402 26311.6
 01 10 2016  00 22  -15.5152 26090.3   3406.2   7.4381 26311.7
 01 10 2016  00 23  -15.5157 26090.3   3405.9   7.4375 26311.7
 01 10 2016  00 24  -15.5153 26090.6   3406.5   7.4386 26312.0
 01 10 2016  00 25  -15.5153 26090.8   3406.4   7.4384 26312.2
 01 10 2016  00 26  -15.5151 26091.0   3406.3   7.4381 26312.4
 01 10 2016  00 27  -15.5158 26091.1   3406.3   7.4382 26312.5
 01 10 2016  00 28  -15.5145 26091.5   3406.6   7.4387 26312.9
 01 10 2016  00 29  -15.5148 26091.6   3407.2   7.4400 26313.2
 01 10 2016  00 30  -15.5149 26092.3   3405.7   7.4364 26313.6
 01 10 2016  00 31  -15.5136 26093.0   3407.7   7.4406 26314.6
 01 10 2016  00 32  -15.5143 26093.6   3405.6   7.4359 26314.9
 01 10 2016  00 33  -15.5135 26094.0   3406.5   7.4378 26315.4
 01 10 2016  00 34  -15.5145 26094.2   3405.8   7.4362 26315.5
 01 10 2016  00 35  -15.5139 26094.2   3407.8   7.4404 26315.8
 01 10 2016  00 36  -15.5131 26094.5   3407.8   7.4403 26316.1
 01 10 2016  00 37  -15.5130 26095.0   3405.8   7.4360 26316.3
 01 10 2016  00 38  -15.5125 26095.0   3407.5   7.4395 26316.5
 01 10 2016  00 39  -15.5134 26095.6   3406.0   7.4363 26316.9
 01 10 2016  00 40  -15.5138 26095.8   3407.3   7.4389 26317.3
 01 10 2016  00 41  -15.5134 26096.4   3405.9   7.4359 26317.7
 01 10 2016  00 42  -15.5146 26095.9   3405.4   7.4348 26317.2
 01 10 2016  00 43  -15.5139 26095.8   3406.2   7.4365 26317.1
 01 10 2016  00 44  -15.5147 26095.6   3405.9   7.4361 26316.9
 01 10 2016  00 45  -15.5136 26096.1   3407.1   7.4384 26317.5
 01 10 2016  00 46  -15.5136 26097.3   3406.9   7.4377 26318.7
 01 10 2016  00 47  -15.5124 26098.2   3407.8   7.4393 26319.7
 01 10 2016  00 48  -15.5128 26099.4   3407.1   7.4375 26320.8
 01 10 2016  00 49  -15.5105 26101.4   3407.8   7.4385 26322.9
 01 10 2016  00 50  -15.5116 26101.8   3408.9   7.4407 26323.4
 01 10 2016  00 51  -15.5107 26103.0   3409.2   7.4410 26324.7
 01 10 2016  00 52  -15.5096 26103.9   3409.5   7.4415 26325.6
 01 10 2016  00 53  -15.5097 26104.9   3408.6   7.4392 26326.5
 01 10 2016  00 54  -15.5109 26105.2   3407.8   7.4373 26326.7
 01 10 2016  00 55  -15.5092 26106.0   3407.8   7.4372 26327.4
 01 10 2016  00 56  -15.5089 26106.4   3408.0   7.4374 26327.9
 01 10 2016  00 57  -15.5104 26106.8   3406.0   7.4331 26328.0
 01 10 2016  00 58  -15.5099 26107.4   3406.3   7.4336 26328.7
 01 10 2016  00 59  -15.5103 26107.5   3407.2   7.4355 26328.9
 01 10 2016  01 00  -15.5108 26108.1   3406.7   7.4342 26329.4
 01 10 2016  01 01  -15.5113 26108.5   3407.1   7.4351 26329.9
 01 10 2016  01 02  -15.5101 26109.6   3407.8   7.4362 26331.0
 01 10 2016  01 03  -15.5109 26110.5   3406.7   7.4335 26331.8
 01 10 2016  01 04  -15.5105 26110.9   3407.3   7.4348 26332.3
 01 10 2016  01 05  -15.5108 26110.5   3408.2   7.4367 26332.0
 01 10 2016  01 06  -15.5121 26110.5   3405.5   7.4309 26331.6
 01 10 2016  01 07  -15.5116 26110.2   3405.2   7.4305 26331.3
 01 10 2016  01 08  -15.5115 26110.4   3405.6   7.4312 26331.5
 01 10 2016  01 09  -15.5121 26110.4   3405.6   7.4312 26331.5
 01 10 2016  01 10  -15.5130 26110.3   3404.8   7.4295 26331.4
 01 10 2016  01 11  -15.5123 26110.3   3405.9   7.4318 26331.5
 01 10 2016  01 12  -15.5136 26109.8   3406.4   7.4332 26331.0
 01 10 2016  01 13  -15.5138 26109.7   3406.5   7.4333 26331.0
 01 10 2016  01 14  -15.5151 26109.0   3405.0   7.4303 26330.1
 01 10 2016  01 15  -15.5139 26108.9   3405.0   7.4304 26330.0
 01 10 2016  01 16  -15.5147 26108.6   3403.7   7.4276 26329.5
 01 10 2016  01 17  -15.5149 26108.0   3404.6   7.4297 26329.1
 01 10 2016  01 18  -15.5149 26107.9   3404.9   7.4304 26329.0
 01 10 2016  01 19  -15.5153 26107.5   3404.5   7.4297 26328.6
 01 10 2016  01 20  -15.5159 26106.9   3404.2   7.4291 26327.9
 01 10 2016  01 21  -15.5163 26106.2   3404.3   7.4295 26327.3
 01 10 2016  01 22  -15.5150 26106.4   3404.0   7.4288 26327.4
 01 10 2016  01 23  -15.5160 26105.9   3404.6   7.4302 26326.9
 01 10 2016  01 24  -15.5156 26106.0   3404.6   7.4304 26327.0
 01 10 2016  01 25  -15.5170 26105.8   3404.8   7.4307 26326.9
 01 10 2016  01 26  -15.5158 26106.5   3403.8   7.4284 26327.4
 01 10 2016  01 27  -15.5155 26106.5   3405.3   7.4315 26327.7
 01 10 2016  01 28  -15.5162 26106.3   3405.0   7.4311 26327.4
 01 10 2016  01 29  -15.5167 26106.0   3405.6   7.4323 26327.2
 01 10 2016  01 30  -15.5157 26106.1   3405.4   7.4319 26327.2
 01 10 2016  01 31  -15.5167 26105.6   3405.4   7.4322 26326.8
 01 10 2016  01 32  -15.5158 26105.8   3404.5   7.4301 26326.9
 01 10 2016  01 33  -15.5161 26105.5   3404.5   7.4302 26326.6
 01 10 2016  01 34  -15.5165 26105.6   3403.3   7.4275 26326.5
 01 10 2016  01 35  -15.5166 26105.4   3404.6   7.4304 26326.5
 01 10 2016  01 36  -15.5175 26105.3   3403.6   7.4284 26326.2
 01 10 2016  01 37  -15.5169 26105.1   3405.4   7.4323 26326.2
 01 10 2016  01 38  -15.5171 26105.1   3404.4   7.4302 26326.2
 01 10 2016  01 39  -15.5175 26104.8   3403.5   7.4283 26325.8
 01 10 2016  01 40  -15.5166 26104.7   3404.4   7.4302 26325.8
 01 10 2016  01 41  -15.5176 26104.4   3404.0   7.4295 26325.5
 01 10 2016  01 42  -15.5174 26104.4   3405.1   7.4319 26325.5
 01 10 2016  01 43  -15.5183 26104.0   3404.7   7.4311 26325.1
 01 10 2016  01 44  -15.5175 26104.4   3404.9   7.4313 26325.5
 01 10 2016  01 45  -15.5184 26104.3   3406.0   7.4338 26325.6
 01 10 2016  01 46  -15.5183 26104.7   3405.1   7.4316 26325.8
 01 10 2016  01 47  -15.5175 26104.8   3405.5   7.4325 26326.0
 01 10 2016  01 48  -15.5189 26104.6   3405.0   7.4315 26325.7
 01 10 2016  01 49  -15.5185 26104.7   3403.9   7.4291 26325.7
 01 10 2016  01 50  -15.5186 26104.5   3404.2   7.4298 26325.5
 01 10 2016  01 51  -15.5179 26104.6   3404.5   7.4305 26325.6
 01 10 2016  01 52  -15.5184 26104.6   3404.3   7.4301 26325.6
 01 10 2016  01 53  -15.5174 26104.7   3405.7   7.4329 26325.9
 01 10 2016  01 54  -15.5172 26105.0   3404.6   7.4305 26326.1
 01 10 2016  01 55  -15.5177 26104.8   3405.3   7.4321 26326.0
 01 10 2016  01 56  -15.5180 26105.3   3405.6   7.4326 26326.5
 01 10 2016  01 57  -15.5170 26105.4   3405.8   7.4331 26326.6
 01 10 2016  01 58  -15.5175 26104.7   3404.9   7.4313 26325.9
 01 10 2016  01 59  -15.5178 26104.6   3404.7   7.4308 26325.6
 01 10 2016  02 00  -15.5175 26104.7   3405.1   7.4316 26325.9
 01 10 2016  02 01  -15.5177 26104.9   3405.3   7.4321 26326.0
 01 10 2016  02 02  -15.5185 26104.7   3404.8   7.4310 26325.8
 01 10 2016  02 03  -15.5185 26104.6   3404.9   7.4313 26325.7
 01 10 2016  02 04  -15.5175 26104.6   3405.4   7.4324 26325.8
 01 10 2016  02 05  -15.5181 26104.4   3404.9   7.4313 26325.5
 01 10 2016  02 06  -15.5183 26104.4   3405.0   7.4316 26325.5
 01 10 2016  02 07  -15.5182 26104.4   3405.1   7.4317 26325.5
 01 10 2016  02 08  -15.5184 26104.3   3405.0   7.4316 26325.4
 01 10 2016  02 09  -15.5182 26104.2   3405.0   7.4317 26325.4
 01 10 2016  02 10  -15.5183 26104.3   3405.1   7.4319 26325.4
 01 10 2016  02 11  -15.5185 26104.2   3405.4   7.4325 26325.4
 01 10 2016  02 12  -15.5182 26104.5   3405.1   7.4317 26325.6
 01 10 2016  02 13  -15.5183 26104.6   3405.4   7.4323 26325.7
 01 10 2016  02 14  -15.5187 26104.5   3405.4   7.4324 26325.7
 01 10 2016  02 15  -15.5185 26104.6   3405.4   7.4323 26325.8
 01 10 2016  02 16  -15.5184 26104.7   3405.3   7.4322 26325.8
 01 10 2016  02 17  -15.5182 26104.7   3405.4   7.4324 26325.9
 01 10 2016  02 18  -15.5184 26104.7   3405.3   7.4321 26325.9
 01 10 2016  02 19  -15.5188 26104.9   3404.9   7.4312 26326.0
 01 10 2016  02 20  -15.5176 26105.1   3406.2   7.4339 26326.4
 01 10 2016  02 21  -15.5183 26104.9   3406.9   7.4355 26326.2
 01 10 2016  02 22  -15.5174 26105.4   3405.4   7.4323 26326.6
 01 10 2016  02 23  -15.5179 26105.2   3405.0   7.4314 26326.3
 01 10 2016  02 24  -15.5184 26105.1   3404.9   7.4311 26326.2
 01 10 2016  02 25  -15.5174 26105.3   3405.3   7.4319 26326.4
 01 10 2016  02 26  -15.5176 26105.2   3405.1   7.4317 26326.4
 01 10 2016  02 27  -15.5183 26104.8   3405.8   7.4332 26326.1
 01 10 2016  02 28  -15.5181 26105.2   3404.1   7.4293 26326.2
 01 10 2016  02 29  -15.5176 26104.9   3406.4   7.4345 26326.2
 01 10 2016  02 30  -15.5171 26105.1   3405.3   7.4319 26326.3
 01 10 2016  02 31  -15.5172 26105.2   3403.8   7.4287 26326.2
 01 10 2016  02 32  -15.5173 26105.1   3404.5   7.4303 26326.2
 01 10 2016  02 33  -15.5164 26104.9   3406.6   7.4348 26326.3
 01 10 2016  02 34  -15.5165 26105.1   3405.2   7.4319 26326.3
 01 10 2016  02 35  -15.5165 26105.1   3405.3   7.4321 26326.3
 01 10 2016  02 36  -15.5180 26104.6   3405.5   7.4325 26325.8
 01 10 2016  02 37  -15.5165 26104.8   3406.4   7.4344 26326.1
 01 10 2016  02 38  -15.5164 26104.9   3406.0   7.4336 26326.2
 01 10 2016  02 39  -15.5168 26104.8   3405.4   7.4324 26326.0
 01 10 2016  02 40  -15.5164 26104.9   3405.3   7.4320 26326.1
 01 10 2016  02 41  -15.5166 26104.8   3405.3   7.4321 26325.9
 01 10 2016  02 42  -15.5162 26104.7   3405.7   7.4329 26326.0
 01 10 2016  02 43  -15.5162 26104.8   3404.6   7.4305 26325.9
 01 10 2016  02 44  -15.5158 26104.6   3405.5   7.4326 26325.8
 01 10 2016  02 45  -15.5164 26104.6   3405.1   7.4316 26325.7
 01 10 2016  02 46  -15.5158 26104.4   3406.6   7.4350 26325.8
 01 10 2016  02 47  -15.5154 26104.8   3405.7   7.4330 26326.0
 01 10 2016  02 48  -15.5153 26104.8   3405.6   7.4327 26326.0
 01 10 2016  02 49  -15.5153 26104.7   3405.4   7.4323 26325.9
 01 10 2016  02 50  -15.5151 26104.5   3405.3   7.4321 26325.7
 01 10 2016  02 51  -15.5151 26104.5   3405.4   7.4324 26325.6
 01 10 2016  02 52  -15.5151 26104.4   3405.1   7.4318 26325.5
 01 10 2016  02 53  -15.5148 26104.5   3405.2   7.4320 26325.6
 01 10 2016  02 54  -15.5146 26104.5   3405.4   7.4323 26325.7
 01 10 2016  02 55  -15.5146 26104.6   3405.4   7.4323 26325.8
 01 10 2016  02 56  -15.5140 26104.9   3405.4   7.4324 26326.1
 01 10 2016  02 57  -15.5139 26104.8   3405.3   7.4322 26326.0
 01 10 2016  02 58  -15.5150 26104.9   3404.2   7.4297 26325.9
 01 10 2016  02 59  -15.5134 26105.4   3404.5   7.4302 26326.5
 01 10 2016  03 00  -15.5140 26105.2   3404.8   7.4309 26326.3
 01 10 2016  03 01  -15.5141 26105.3   3404.5   7.4302 26326.3
 01 10 2016  03 02  -15.5134 26105.2   3405.4   7.4322 26326.4
 01 10 2016  03 03  -15.5132 26105.1   3406.1   7.4338 26326.4
 01 10 2016  03 04  -15.5139 26104.7   3405.8   7.4333 26325.9
 01 10 2016  03 05  -15.5133 26104.7   3403.5   7.4283 26325.7
 01 10 2016  03 06  -15.5136 26104.1   3403.7   7.4289 26325.0
 01 10 2016  03 07  -15.5133 26103.5   3403.9   7.4294 26324.5
 01 10 2016  03 08  -15.5129 26103.4   3403.3   7.4283 26324.3
 01 10 2016  03 09  -15.5123 26103.2   3404.8   7.4315 26324.3
 01 10 2016  03 10  -15.5123 26102.9   3405.9   7.4340 26324.1
 01 10 2016  03 11  -15.5136 26102.4   3405.0   7.4321 26323.5
 01 10 2016  03 12  -15.5140 26102.3   3404.2   7.4305 26323.4
 01 10 2016  03 13  -15.5135 26102.7   3404.0   7.4300 26323.7
 01 10 2016  03 14  -15.5140 26102.8   3404.0   7.4298 26323.8
 01 10 2016  03 15  -15.5123 26103.2   3405.1   7.4321 26324.4
 01 10 2016  03 16  -15.5131 26102.9   3405.6   7.4333 26324.1
 01 10 2016  03 17  -15.5131 26102.9   3404.3   7.4306 26324.0
 01 10 2016  03 18  -15.5135 26102.5   3404.2   7.4304 26323.5
 01 10 2016  03 19  -15.5135 26102.1   3404.6   7.4314 26323.2
 01 10 2016  03 20  -15.5141 26101.6   3404.8   7.4319 26322.8
 01 10 2016  03 21  -15.5141 26101.4   3403.6   7.4293 26322.3
 01 10 2016  03 22  -15.5148 26100.6   3404.2   7.4309 26321.7
 01 10 2016  03 23  -15.5145 26100.6   3403.3   7.4291 26321.5
 01 10 2016  03 24  -15.5148 26100.5   3404.4   7.4314 26321.6
 01 10 2016  03 25  -15.5165 26100.0   3404.8   7.4325 26321.2
 01 10 2016  03 26  -15.5161 26100.1   3404.2   7.4310 26321.2
 01 10 2016  03 27  -15.5168 26099.9   3403.6   7.4298 26320.8
 01 10 2016  03 28  -15.5166 26099.5   3404.5   7.4318 26320.7
 01 10 2016  03 29  -15.5171 26099.3   3404.6   7.4322 26320.4
 01 10 2016  03 30  -15.5171 26099.5   3403.3   7.4294 26320.5
 01 10 2016  03 31  -15.5169 26099.7   3403.8   7.4304 26320.7
 01 10 2016  03 32  -15.5176 26099.5   3403.9   7.4306 26320.6
 01 10 2016  03 33  -15.5183 26099.1   3404.9   7.4328 26320.2
 01 10 2016  03 34  -15.5182 26098.6   3405.3   7.4338 26319.9
 01 10 2016  03 35  -15.5185 26098.1   3405.3   7.4339 26319.3
 01 10 2016  03 36  -15.5200 26098.2   3403.6   7.4304 26319.2
 01 10 2016  03 37  -15.5201 26098.6   3403.9   7.4307 26319.6
 01 10 2016  03 38  -15.5192 26099.1   3403.7   7.4302 26320.1
 01 10 2016  03 39  -15.5201 26099.1   3404.3   7.4315 26320.1
 01 10 2016  03 40  -15.5203 26098.9   3405.7   7.4345 26320.2
 01 10 2016  03 41  -15.5199 26099.0   3405.6   7.4344 26320.2
 01 10 2016  03 42  -15.5199 26099.1   3405.1   7.4333 26320.3
 01 10 2016  03 43  -15.5205 26099.2   3406.2   7.4357 26320.5
 01 10 2016  03 44  -15.5205 26099.8   3404.4   7.4317 26320.9
 01 10 2016  03 45  -15.5205 26099.4   3406.5   7.4361 26320.8
 01 10 2016  03 46  -15.5214 26099.3   3404.8   7.4325 26320.4
 01 10 2016  03 47  -15.5205 26099.3   3405.4   7.4339 26320.6
 01 10 2016  03 48  -15.5210 26099.4   3404.1   7.4311 26320.4
 01 10 2016  03 49  -15.5196 26099.6   3406.5   7.4360 26321.0
 01 10 2016  03 50  -15.5204 26099.7   3405.4   7.4338 26320.9
 01 10 2016  03 51  -15.5188 26100.4   3405.7   7.4342 26321.6
 01 10 2016  03 52  -15.5193 26100.2   3406.4   7.4358 26321.6
 01 10 2016  03 53  -15.5191 26100.5   3405.0   7.4327 26321.6
 01 10 2016  03 54  -15.5190 26100.5   3404.9   7.4325 26321.7
 01 10 2016  03 55  -15.5191 26100.4   3404.7   7.4321 26321.6
 01 10 2016  03 56  -15.5188 26100.6   3405.1   7.4330 26321.7
 01 10 2016  03 57  -15.5193 26100.2   3405.7   7.4342 26321.5
 01 10 2016  03 58  -15.5197 26100.4   3403.9   7.4304 26321.4
 01 10 2016  03 59  -15.5208 26100.2   3403.9   7.4304 26321.2
 01 10 2016  04 00  -15.5204 26100.2   3403.2   7.4289 26321.1
 01 10 2016  04 01  -15.5220 26099.4   3404.2   7.4313 26320.5
 01 10 2016  04 02  -15.5229 26099.7   3403.7   7.4302 26320.7
 01 10 2016  04 03  -15.5223 26100.2   3404.3   7.4312 26321.3
 01 10 2016  04 04  -15.5229 26101.3   3404.9   7.4322 26322.5
 01 10 2016  04 05  -15.5234 26101.5   3405.8   7.4342 26322.7
 01 10 2016  04 06  -15.5229 26104.0   3405.8   7.4333 26325.2
 01 10 2016  04 07  -15.5209 26105.5   3406.9   7.4353 26326.9
 01 10 2016  04 08  -15.5207 26107.2   3407.4   7.4359 26328.7
 01 10 2016  04 09  -15.5213 26109.3   3406.1   7.4325 26330.5
 01 10 2016  04 10  -15.5212 26111.1   3406.6   7.4331 26332.4
 01 10 2016  04 11  -15.5211 26113.0   3406.9   7.4332 26334.3
 01 10 2016  04 12  -15.5209 26114.7   3409.3   7.4380 26336.3
 01 10 2016  04 13  -15.5201 26117.2   3409.0   7.4365 26338.7
 01 10 2016  04 14  -15.5190 26119.3   3409.4   7.4369 26340.8
 01 10 2016  04 15  -15.5180 26121.9   3408.7   7.4346 26343.4
 01 10 2016  04 16  -15.5180 26122.9   3410.0   7.4372 26344.6
 01 10 2016  04 17  -15.5182 26124.5   3408.3   7.4330 26345.9
 01 10 2016  04 18  -15.5174 26125.7   3409.1   7.4344 26347.2
 01 10 2016  04 19  -15.5179 26125.9   3409.4   7.4351 26347.4
 01 10 2016  04 20  -15.5189 26126.8   3406.9   7.4294 26347.9
 01 10 2016  04 21  -15.5187 26127.7   3406.2   7.4276 26348.8
 01 10 2016  04 22  -15.5175 26128.0   3407.7   7.4308 26349.3
 01 10 2016  04 23  -15.5194 26128.0   3405.8   7.4265 26349.1
 01 10 2016  04 24  -15.5200 26128.5   3405.2   7.4253 26349.5
 01 10 2016  04 25  -15.5196 26128.6   3407.1   7.4292 26349.8
 01 10 2016  04 26  -15.5203 26129.2   3405.7   7.4261 26350.2
 01 10 2016  04 27  -15.5200 26129.3   3405.9   7.4265 26350.3
 01 10 2016  04 28  -15.5213 26129.1   3406.0   7.4268 26350.2
 01 10 2016  04 29  -15.5214 26129.2   3404.8   7.4241 26350.1
 01 10 2016  04 30  -15.5216 26128.9   3404.5   7.4235 26349.8
 01 10 2016  04 31  -15.5216 26128.6   3405.0   7.4248 26349.6
 01 10 2016  04 32  -15.5219 26128.6   3405.2   7.4252 26349.5
 01 10 2016  04 33  -15.5221 26128.7   3404.5   7.4236 26349.6
 01 10 2016  04 34  -15.5221 26128.6   3403.7   7.4220 26349.4
 01 10 2016  04 35  -15.5228 26127.7   3404.0   7.4229 26348.5
 01 10 2016  04 36  -15.5233 26127.0   3403.8   7.4225 26347.8
 01 10 2016  04 37  -15.5236 26126.5   3403.4   7.4219 26347.2
 01 10 2016  04 38  -15.5240 26126.0   3403.0   7.4211 26346.7
 01 10 2016  04 39  -15.5233 26125.8   3402.5   7.4202 26346.5
 01 10 2016  04 40  -15.5241 26125.1   3404.0   7.4235 26345.9
 01 10 2016  04 41  -15.5241 26125.0   3403.6   7.4227 26345.8
 01 10 2016  04 42  -15.5249 26124.3   3404.8   7.4255 26345.2
 01 10 2016  04 43  -15.5247 26124.2   3402.3   7.4203 26344.9
 01 10 2016  04 44  -15.5257 26123.2   3404.0   7.4242 26344.0
 01 10 2016  04 45  -15.5256 26122.8   3403.1   7.4222 26343.6
 01 10 2016  04 46  -15.5258 26122.0   3402.6   7.4215 26342.7
 01 10 2016  04 47  -15.5247 26121.1   3402.8   7.4222 26341.8
 01 10 2016  04 48  -15.5252 26119.9   3402.0   7.4207 26340.5
 01 10 2016  04 49  -15.5253 26119.2   3401.7   7.4204 26339.8
 01 10 2016  04 50  -15.5247 26118.6   3402.1   7.4214 26339.3
 01 10 2016  04 51  -15.5251 26118.4   3401.9   7.4209 26339.0
 01 10 2016  04 52  -15.5246 26118.4   3402.7   7.4227 26339.1
 01 10 2016  04 53  -15.5248 26118.1   3402.5   7.4223 26338.8
 01 10 2016  04 54  -15.5242 26118.0   3403.2   7.4240 26338.8
 01 10 2016  04 55  -15.5244 26117.3   3402.6   7.4228 26338.0
 01 10 2016  04 56  -15.5252 26116.1   3402.3   7.4224 26336.8
 01 10 2016  04 57  -15.5259 26115.3   3401.8   7.4217 26335.9
 01 10 2016  04 58  -15.5265 26114.9   3402.0   7.4221 26335.5
 01 10 2016  04 59  -15.5267 26115.1   3401.9   7.4220 26335.8
 01 10 2016  05 00  -15.5267 26115.0   3402.7   7.4237 26335.7
 01 10 2016  05 01  -15.5262 26114.8   3402.7   7.4238 26335.6
 01 10 2016  05 02  -15.5256 26115.0   3402.8   7.4238 26335.8
 01 10 2016  05 03  -15.5254 26115.1   3403.5   7.4253 26335.9
 01 10 2016  05 04  -15.5254 26115.1   3401.9   7.4219 26335.7
 01 10 2016  05 05  -15.5254 26114.5   3401.8   7.4218 26335.1
 01 10 2016  05 06  -15.5264 26113.1   3403.8   7.4265 26334.0
 01 10 2016  05 07  -15.5272 26112.5   3402.5   7.4240 26333.2
 01 10 2016  05 08  -15.5264 26112.1   3401.9   7.4227 26332.7
 01 10 2016  05 09  -15.5272 26111.0   3403.4   7.4264 26331.8
 01 10 2016  05 10  -15.5268 26110.3   3401.0   7.4213 26330.9
 01 10 2016  05 11  -15.5268 26109.2   3400.3   7.4201 26329.7
 01 10 2016  05 12  -15.5248 26109.4   3401.8   7.4232 26330.0
 01 10 2016  05 13  -15.5253 26109.8   3401.3   7.4220 26330.4
 01 10 2016  05 14  -15.5241 26110.4   3403.1   7.4258 26331.3
 01 10 2016  05 15  -15.5262 26110.5   3402.7   7.4250 26331.3
 01 10 2016  05 16  -15.5265 26110.5   3404.1   7.4278 26331.5
 01 10 2016  05 17  -15.5258 26110.4   3403.1   7.4257 26331.3
 01 10 2016  05 18  -15.5268 26110.1   3402.4   7.4243 26330.9
 01 10 2016  05 19  -15.5260 26110.2   3403.6   7.4270 26331.1
 01 10 2016  05 20  -15.5264 26110.3   3402.3   7.4242 26331.1
 01 10 2016  05 21  -15.5259 26110.0   3404.4   7.4288 26331.0
 01 10 2016  05 22  -15.5262 26109.9   3403.5   7.4269 26330.8
 01 10 2016  05 23  -15.5262 26110.0   3403.1   7.4260 26330.8
 01 10 2016  05 24  -15.5255 26110.1   3403.7   7.4272 26331.0
 01 10 2016  05 25  -15.5262 26109.9   3404.0   7.4280 26330.9
 01 10 2016  05 26  -15.5264 26109.7   3403.9   7.4278 26330.7
 01 10 2016  05 27  -15.5258 26109.7   3403.0   7.4257 26330.6
 01 10 2016  05 28  -15.5266 26109.0   3403.9   7.4280 26330.0
 01 10 2016  05 29  -15.5256 26108.8   3404.5   7.4293 26329.9
 01 10 2016  05 30  -15.5256 26109.0   3404.2   7.4285 26330.0
 01 10 2016  05 31  -15.5263 26109.2   3402.8   7.4256 26330.1
 01 10 2016  05 32  -15.5264 26109.2   3404.3   7.4286 26330.2
 01 10 2016  05 33  -15.5268 26109.5   3404.2   7.4284 26330.5
 01 10 2016  05 34  -15.5267 26109.5   3404.7   7.4295 26330.6
 01 10 2016  05 35  -15.5270 26109.6   3404.6   7.4291 26330.7
 01 10 2016  05 36  -15.5279 26109.3   3404.3   7.4288 26330.4
 01 10 2016  05 37  -15.5285 26109.3   3403.9   7.4277 26330.3
 01 10 2016  05 38  -15.5284 26109.5   3403.0   7.4258 26330.3
 01 10 2016  05 39  -15.5293 26109.0   3404.1   7.4283 26329.9
 01 10 2016  05 40  -15.5298 26108.8   3404.1   7.4284 26329.7
 01 10 2016  05 41  -15.5306 26108.2   3404.3   7.4290 26329.3
 01 10 2016  05 42  -15.5302 26108.3   3402.8   7.4258 26329.2
 01 10 2016  05 43  -15.5283 26108.1   3405.2   7.4309 26329.3
 01 10 2016  05 44  -15.5303 26107.4   3404.0   7.4286 26328.4
 01 10 2016  05 45  -15.5298 26107.1   3404.6   7.4299 26328.2
 01 10 2016  05 46  -15.5277 26107.4   3405.7   7.4322 26328.6
 01 10 2016  05 47  -15.5273 26108.1   3404.5   7.4295 26329.1
 01 10 2016  05 48  -15.5297 26108.0   3403.8   7.4281 26329.0
 01 10 2016  05 49  -15.5289 26108.5   3404.3   7.4290 26329.5
 01 10 2016  05 50  -15.5300 26108.0   3405.9   7.4326 26329.2
 01 10 2016  05 51  -15.5315 26107.7   3404.3   7.4292 26328.7
 01 10 2016  05 52  -15.5317 26107.7   3402.6   7.4254 26328.5
 01 10 2016  05 53  -15.5325 26107.3   3403.1   7.4267 26328.2
 01 10 2016  05 54  -15.5312 26107.3   3404.0   7.4286 26328.3
 01 10 2016  05 55  -15.5316 26106.8   3405.6   7.4322 26328.0
 01 10 2016  05 56  -15.5326 26106.5   3403.8   7.4285 26327.5
 01 10 2016  05 57  -15.5319 26106.3   3405.0   7.4311 26327.4
 01 10 2016  05 58  -15.5323 26106.5   3403.7   7.4281 26327.4
 01 10 2016  05 59  -15.5326 26106.2   3404.3   7.4296 26327.3
 01 10 2016  06 00  -15.5323 26106.0   3405.2   7.4316 26327.1
 01 10 2016  06 01  -15.5333 26105.7   3403.8   7.4287 26326.7
 01 10 2016  06 02  -15.5329 26105.8   3403.9   7.4288 26326.7
 01 10 2016  06 03  -15.5320 26106.0   3404.1   7.4292 26327.0
 01 10 2016  06 04  -15.5317 26105.9   3404.4   7.4299 26327.0
 01 10 2016  06 05  -15.5317 26105.6   3403.7   7.4285 26326.6
 01 10 2016  06 06  -15.5316 26105.2   3403.4   7.4278 26326.2
 01 10 2016  06 07  -15.5319 26104.7   3402.8   7.4267 26325.5
 01 10 2016  06 08  -15.5305 26104.8   3402.9   7.4269 26325.6
 01 10 2016  06 09  -15.5307 26104.1   3404.9   7.4314 26325.3
 01 10 2016  06 10  -15.5310 26104.1   3405.0   7.4316 26325.2
 01 10 2016  06 11  -15.5308 26104.2   3404.8   7.4312 26325.3
 01 10 2016  06 12  -15.5317 26104.1   3404.1   7.4298 26325.1
 01 10 2016  06 13  -15.5314 26104.1   3403.5   7.4284 26325.1
 01 10 2016  06 14  -15.5320 26103.9   3404.2   7.4300 26325.0
 01 10 2016  06 15  -15.5328 26103.8   3404.1   7.4299 26324.8
 01 10 2016  06 16  -15.5330 26103.8   3403.6   7.4287 26324.7
 01 10 2016  06 17  -15.5324 26103.7   3403.9   7.4293 26324.7
 01 10 2016  06 18  -15.5323 26103.6   3404.1   7.4299 26324.6
 01 10 2016  06 19  -15.5315 26103.7   3404.7   7.4311 26324.8
 01 10 2016  06 20  -15.5325 26103.7   3403.7   7.4291 26324.7
 01 10 2016  06 21  -15.5310 26104.3   3404.0   7.4294 26325.3
 01 10 2016  06 22  -15.5296 26104.5   3405.7   7.4331 26325.7
 01 10 2016  06 23  -15.5295 26104.9   3404.5   7.4303 26325.9
 01 10 2016  06 24  -15.5305 26104.6   3405.0   7.4315 26325.7
 01 10 2016  06 25  -15.5304 26104.9   3404.2   7.4298 26325.9
 01 10 2016  06 26  -15.5317 26104.9   3403.4   7.4280 26325.8
 01 10 2016  06 27  -15.5301 26105.3   3404.9   7.4312 26326.4
 01 10 2016  06 28  -15.5310 26105.4   3404.3   7.4298 26326.5
 01 10 2016  06 29  -15.5312 26105.6   3405.2   7.4316 26326.7
 01 10 2016  06 30  -15.5321 26105.4   3405.9   7.4332 26326.7
 01 10 2016  06 31  -15.5310 26106.2   3404.0   7.4290 26327.2
 01 10 2016  06 32  -15.5316 26105.9   3405.4   7.4319 26327.0
 01 10 2016  06 33  -15.5306 26106.1   3405.5   7.4321 26327.3
 01 10 2016  06 34  -15.5300 26106.3   3404.3   7.4295 26327.3
 01 10 2016  06 35  -15.5301 26106.0   3404.5   7.4302 26327.0
 01 10 2016  06 36  -15.5305 26105.7   3403.9   7.4288 26326.7
 01 10 2016  06 37  -15.5288 26105.8   3404.8   7.4307 26326.9
 01 10 2016  06 38  -15.5283 26105.9   3404.4   7.4300 26326.9
 01 10 2016  06 39  -15.5285 26105.7   3404.4   7.4300 26326.7
 01 10 2016  06 40  -15.5280 26105.7   3405.1   7.4313 26326.8
 01 10 2016  06 41  -15.5274 26105.8   3404.9   7.4310 26326.9
 01 10 2016  06 42  -15.5260 26106.2   3405.0   7.4310 26327.4
 01 10 2016  06 43  -15.5260 26106.2   3405.3   7.4317 26327.4
 01 10 2016  06 44  -15.5264 26106.5   3404.4   7.4297 26327.5
 01 10 2016  06 45  -15.5263 26106.6   3405.0   7.4309 26327.7
 01 10 2016  06 46  -15.5255 26107.0   3405.4   7.4316 26328.2
 01 10 2016  06 47  -15.5251 26107.6   3403.9   7.4283 26328.6
 01 10 2016  06 48  -15.5265 26107.4   3404.4   7.4293 26328.4
 01 10 2016  06 49  -15.5254 26107.7   3405.2   7.4311 26328.8
 01 10 2016  06 50  -15.5238 26108.5   3404.4   7.4292 26329.5
 01 10 2016  06 51  -15.5231 26108.7   3405.0   7.4303 26329.8
 01 10 2016  06 52  -15.5239 26108.5   3403.8   7.4278 26329.5
 01 10 2016  06 53  -15.5232 26108.2   3404.0   7.4284 26329.2
 01 10 2016  06 54  -15.5220 26108.0   3405.6   7.4318 26329.2
 01 10 2016  06 55  -15.5222 26107.9   3405.2   7.4311 26329.0
 01 10 2016  06 56  -15.5213 26108.2   3404.6   7.4296 26329.2
 01 10 2016  06 57  -15.5228 26107.6   3404.9   7.4305 26328.7
 01 10 2016  06 58  -15.5223 26107.7   3404.2   7.4290 26328.7
 01 10 2016  06 59  -15.5212 26107.7   3405.2   7.4310 26328.8
 01 10 2016  07 00  -15.5210 26107.6   3405.5   7.4317 26328.8
 01 10 2016  07 01  -15.5205 26108.1   3404.1   7.4286 26329.0
 01 10 2016  07 02  -15.5206 26108.2   3404.3   7.4291 26329.2
 01 10 2016  07 03  -15.5220 26107.7   3405.3   7.4313 26328.8
 01 10 2016  07 04  -15.5216 26107.9   3404.6   7.4298 26329.0
 01 10 2016  07 05  -15.5218 26108.2   3403.0   7.4262 26329.0
 01 10 2016  07 06  -15.5205 26108.5   3403.8   7.4279 26329.4
 01 10 2016  07 07  -15.5204 26108.3   3405.0   7.4305 26329.5
 01 10 2016  07 08  -15.5198 26108.7   3404.3   7.4288 26329.7
 01 10 2016  07 09  -15.5213 26108.5   3403.3   7.4267 26329.4
 01 10 2016  07 10  -15.5219 26108.2   3404.5   7.4295 26329.2
 01 10 2016  07 11  -15.5209 26108.2   3405.7   7.4321 26329.4
 01 10 2016  07 12  -15.5204 26108.5   3405.0   7.4304 26329.6
 01 10 2016  07 13  -15.5209 26108.5   3404.5   7.4294 26329.5
 01 10 2016  07 14  -15.5204 26108.6   3405.9   7.4323 26329.8
 01 10 2016  07 15  -15.5216 26108.6   3405.4   7.4312 26329.8
 01 10 2016  07 16  -15.5218 26109.0   3405.4   7.4312 26330.1
 01 10 2016  07 17  -15.5209 26109.8   3404.1   7.4281 26330.8
 01 10 2016  07 18  -15.5213 26109.9   3404.0   7.4278 26330.9
 01 10 2016  07 19  -15.5202 26110.2   3404.9   7.4297 26331.3
 01 10 2016  07 20  -15.5213 26109.4   3405.7   7.4317 26330.6
 01 10 2016  07 21  -15.5210 26109.4   3403.7   7.4274 26330.3
 01 10 2016  07 22  -15.5203 26109.0   3404.6   7.4293 26330.0
 01 10 2016  07 23  -15.5204 26108.3   3403.6   7.4274 26329.2
 01 10 2016  07 24  -15.5193 26108.0   3403.9   7.4282 26329.0
 01 10 2016  07 25  -15.5190 26107.9   3405.1   7.4308 26329.0
 01 10 2016  07 26  -15.5205 26108.0   3404.3   7.4292 26329.0
 01 10 2016  07 27  -15.5201 26108.4   3403.4   7.4269 26329.3
 01 10 2016  07 28  -15.5198 26108.5   3403.8   7.4278 26329.5
 01 10 2016  07 29  -15.5192 26108.7   3405.8   7.4320 26329.9
 01 10 2016  07 30  -15.5196 26108.9   3405.5   7.4315 26330.1
 01 10 2016  07 31  -15.5199 26109.2   3404.6   7.4294 26330.2
 01 10 2016  07 32  -15.5210 26109.0   3403.5   7.4269 26329.9
 01 10 2016  07 33  -15.5203 26108.8   3405.4   7.4313 26329.9
 01 10 2016  07 34  -15.5199 26109.2   3403.7   7.4273 26330.2
 01 10 2016  07 35  -15.5194 26109.3   3404.5   7.4291 26330.3
 01 10 2016  07 36  -15.5196 26109.1   3404.1   7.4282 26330.1
 01 10 2016  07 37  -15.5198 26108.9   3403.4   7.4268 26329.8
 01 10 2016  07 38  -15.5207 26108.6   3403.3   7.4268 26329.5
 01 10 2016  07 39  -15.5209 26108.2   3403.9   7.4281 26329.2
 01 10 2016  07 40  -15.5206 26108.3   3402.9   7.4260 26329.2
 01 10 2016  07 41  -15.5213 26108.1   3404.5   7.4295 26329.1
 01 10 2016  07 42  -15.5207 26108.4   3405.0   7.4304 26329.5
 01 10 2016  07 43  -15.5213 26108.4   3404.3   7.4288 26329.5
 01 10 2016  07 44  -15.5200 26109.0   3405.0   7.4302 26330.1
 01 10 2016  07 45  -15.5213 26108.9   3404.1   7.4283 26329.9
 01 10 2016  07 46  -15.5207 26109.2   3403.7   7.4275 26330.1
 01 10 2016  07 47  -15.5214 26108.8   3404.5   7.4292 26329.8
 01 10 2016  07 48  -15.5215 26108.7   3404.7   7.4296 26329.7
 01 10 2016  07 49  -15.5219 26108.6   3404.7   7.4298 26329.7
 01 10 2016  07 50  -15.5210 26108.9   3404.0   7.4281 26329.9
 01 10 2016  07 51  -15.5218 26108.7   3404.5   7.4293 26329.7
 01 10 2016  07 52  -15.5221 26108.5   3404.4   7.4290 26329.5
 01 10 2016  07 53  -15.5222 26108.6   3404.5   7.4293 26329.7
 01 10 2016  07 54  -15.5224 26108.8   3404.3   7.4289 26329.8
 01 10 2016  07 55  -15.5228 26108.7   3404.7   7.4298 26329.7
 01 10 2016  07 56  -15.5220 26109.0   3405.1   7.4304 26330.1
 01 10 2016  07 57  -15.5223 26109.2   3404.3   7.4288 26330.2
 01 10 2016  07 58  -15.5225 26109.0   3405.3   7.4309 26330.2
 01 10 2016  07 59  -15.5230 26108.6   3404.7   7.4299 26329.6
 01 10 2016  08 00  -15.5214 26108.7   3404.6   7.4295 26329.8
 01 10 2016  08 01  -15.5222 26108.5   3404.5   7.4294 26329.5
 01 10 2016  08 02  -15.5216 26108.3   3405.0   7.4305 26329.4
 01 10 2016  08 03  -15.5218 26108.3   3405.7   7.4320 26329.5
 01 10 2016  08 04  -15.5210 26108.8   3404.4   7.4291 26329.8
 01 10 2016  08 05  -15.5217 26108.6   3404.9   7.4302 26329.7
 01 10 2016  08 06  -15.5201 26108.6   3406.2   7.4330 26329.9
 01 10 2016  08 07  -15.5196 26108.8   3405.7   7.4319 26330.0
 01 10 2016  08 08  -15.5197 26109.1   3404.0   7.4280 26330.1
 01 10 2016  08 09  -15.5193 26109.2   3404.4   7.4289 26330.2
 01 10 2016  08 10  -15.5198 26109.3   3404.5   7.4292 26330.3
 01 10 2016  08 11  -15.5207 26109.3   3403.8   7.4276 26330.2
 01 10 2016  08 12  -15.5204 26109.4   3404.5   7.4291 26330.4
 01 10 2016  08 13  -15.5200 26109.5   3404.4   7.4288 26330.5
 01 10 2016  08 14  -15.5193 26109.6   3405.1   7.4304 26330.7
 01 10 2016  08 15  -15.5185 26109.7   3404.9   7.4299 26330.8
 01 10 2016  08 16  -15.5180 26109.6   3404.8   7.4296 26330.7
 01 10 2016  08 17  -15.5170 26109.4   3404.9   7.4300 26330.5
 01 10 2016  08 18  -15.5165 26109.1   3404.4   7.4290 26330.1
 01 10 2016  08 19  -15.5160 26109.0   3404.5   7.4292 26330.0
 01 10 2016  08 20  -15.5161 26109.2   3404.2   7.4285 26330.2
 01 10 2016  08 21  -15.5162 26109.6   3404.6   7.4293 26330.7
 01 10 2016  08 22  -15.5164 26110.1   3404.8   7.4296 26331.2
 01 10 2016  08 23  -15.5165 26110.6   3405.1   7.4301 26331.7
 01 10 2016  08 24  -15.5167 26110.5   3404.9   7.4297 26331.6
 01 10 2016  08 25  -15.5174 26110.2   3404.2   7.4283 26331.2
 01 10 2016  08 26  -15.5162 26110.1   3405.7   7.4315 26331.3
 01 10 2016  08 27  -15.5168 26110.2   3404.8   7.4295 26331.3
 01 10 2016  08 28  -15.5170 26110.0   3405.7   7.4315 26331.2
 01 10 2016  08 29  -15.5168 26109.9   3405.2   7.4305 26331.0
 01 10 2016  08 30  -15.5156 26110.4   3404.3   7.4283 26331.3
 01 10 2016  08 31  -15.5157 26109.9   3405.6   7.4314 26331.1
 01 10 2016  08 32  -15.5158 26110.0   3404.4   7.4288 26331.0
 01 10 2016  08 33  -15.5158 26109.7   3403.5   7.4269 26330.6
 01 10 2016  08 34  -15.5150 26109.3   3404.2   7.4285 26330.3
 01 10 2016  08 35  -15.5160 26109.3   3402.8   7.4255 26330.1
 01 10 2016  08 36  -15.5145 26109.7   3403.6   7.4272 26330.6
 01 10 2016  08 37  -15.5138 26109.6   3405.7   7.4317 26330.8
 01 10 2016  08 38  -15.5146 26109.7   3404.8   7.4296 26330.7
 01 10 2016  08 39  -15.5136 26110.2   3404.8   7.4296 26331.3
 01 10 2016  08 40  -15.5134 26110.3   3404.8   7.4296 26331.3
 01 10 2016  08 41  -15.5123 26111.0   3405.3   7.4303 26332.1
 01 10 2016  08 42  -15.5139 26110.9   3404.2   7.4280 26331.9
 01 10 2016  08 43  -15.5136 26111.6   3404.9   7.4294 26332.7
 01 10 2016  08 44  -15.5123 26112.1   3405.5   7.4304 26333.2
 01 10 2016  08 45  -15.5142 26112.1   3405.1   7.4296 26333.1
 01 10 2016  08 46  -15.5142 26112.5   3406.0   7.4313 26333.7
 01 10 2016  08 47  -15.5146 26112.9   3404.2   7.4275 26333.9
 01 10 2016  08 48  -15.5143 26113.1   3404.5   7.4281 26334.1
 01 10 2016  08 49  -15.5151 26112.9   3404.6   7.4283 26333.9
 01 10 2016  08 50  -15.5142 26113.3   3404.5   7.4281 26334.3
 01 10 2016  08 51  -15.5151 26113.5   3404.6   7.4281 26334.5
 01 10 2016  08 52  -15.5156 26114.0   3404.7   7.4282 26335.0
 01 10 2016  08 53  -15.5158 26114.5   3405.1   7.4289 26335.5
 01 10 2016  08 54  -15.5159 26115.1   3405.7   7.4300 26336.2
 01 10 2016  08 55  -15.5171 26115.1   3404.6   7.4276 26336.1
 01 10 2016  08 56  -15.5173 26114.2   3405.1   7.4289 26335.3
 01 10 2016  08 57  -15.5170 26113.3   3404.0   7.4269 26334.2
 01 10 2016  08 58  -15.5148 26113.9   3404.8   7.4286 26334.9
 01 10 2016  08 59  -15.5154 26114.1   3404.4   7.4275 26335.1
 01 10 2016  09 00  -15.5149 26114.4   3404.8   7.4283 26335.5
 01 10 2016  09 01  -15.5151 26113.9   3404.8   7.4284 26334.9
 01 10 2016  09 02  -15.5155 26113.4   3404.4   7.4277 26334.4
 01 10 2016  09 03  -15.5143 26113.5   3404.8   7.4285 26334.6
 01 10 2016  09 04  -15.5132 26113.7   3404.3   7.4275 26334.6
 01 10 2016  09 05  -15.5122 26113.8   3404.9   7.4287 26334.8
 01 10 2016  09 06  -15.5119 26113.9   3404.9   7.4286 26334.9
 01 10 2016  09 07  -15.5110 26114.1   3406.1   7.4313 26335.3
 01 10 2016  09 08  -15.5105 26114.3   3404.9   7.4285 26335.3
 01 10 2016  09 09  -15.5104 26113.9   3405.5   7.4299 26335.0
 01 10 2016  09 10  -15.5103 26113.5   3405.4   7.4300 26334.6
 01 10 2016  09 11  -15.5096 26113.5   3404.3   7.4275 26334.4
 01 10 2016  09 12  -15.5096 26113.1   3405.3   7.4297 26334.2
 01 10 2016  09 13  -15.5087 26113.4   3404.9   7.4288 26334.4
 01 10 2016  09 14  -15.5076 26113.2   3406.6   7.4326 26334.5
 01 10 2016  09 15  -15.5079 26113.5   3406.6   7.4325 26334.8
 01 10 2016  09 16  -15.5078 26114.2   3405.0   7.4288 26335.2
 01 10 2016  09 17  -15.5083 26114.1   3404.9   7.4285 26335.1
 01 10 2016  09 18  -15.5079 26113.9   3405.2   7.4293 26335.0
 01 10 2016  09 19  -15.5069 26113.7   3405.6   7.4302 26334.8
 01 10 2016  09 20  -15.5069 26113.2   3405.6   7.4304 26334.4
 01 10 2016  09 21  -15.5058 26113.3   3405.2   7.4296 26334.3
 01 10 2016  09 22  -15.5063 26112.5   3405.8   7.4310 26333.7
 01 10 2016  09 23  -15.5059 26111.9   3406.9   7.4336 26333.2
 01 10 2016  09 24  -15.5058 26112.0   3405.6   7.4308 26333.2
 01 10 2016  09 25  -15.5044 26112.0   3406.4   7.4325 26333.2
 01 10 2016  09 26  -15.5056 26111.5   3405.0   7.4295 26332.6
 01 10 2016  09 27  -15.5037 26111.7   3406.0   7.4317 26332.9
 01 10 2016  09 28  -15.5029 26111.8   3407.1   7.4340 26333.1
 01 10 2016  09 29  -15.5041 26111.5   3406.4   7.4327 26332.7
 01 10 2016  09 30  -15.5033 26111.8   3406.8   7.4333 26333.1
 01 10 2016  09 31  -15.5043 26112.3   3405.8   7.4311 26333.4
 01 10 2016  09 32  -15.5054 26111.6   3407.2   7.4343 26333.0
 01 10 2016  09 33  -15.5064 26110.6   3406.1   7.4322 26331.8
 01 10 2016  09 34  -15.5048 26110.9   3406.2   7.4324 26332.1
 01 10 2016  09 35  -15.5044 26111.0   3405.5   7.4308 26332.2
 01 10 2016  09 36  -15.5035 26111.3   3406.7   7.4332 26332.6
 01 10 2016  09 37  -15.5038 26111.3   3407.2   7.4344 26332.7
 01 10 2016  09 38  -15.5037 26111.5   3406.9   7.4336 26332.9
 01 10 2016  09 39  -15.5038 26111.6   3407.4   7.4347 26333.0
 01 10 2016  09 40  -15.5043 26111.7   3406.8   7.4334 26333.0
 01 10 2016  09 41  -15.5041 26111.8   3406.7   7.4331 26333.1
 01 10 2016  09 42  -15.5041 26112.0   3406.8   7.4332 26333.3
 01 10 2016  09 43  -15.5040 26112.0   3407.1   7.4340 26333.3
 01 10 2016  09 44  -15.5041 26111.7   3406.2   7.4321 26333.0
 01 10 2016  09 45  -15.5036 26111.5   3406.6   7.4330 26332.8
 01 10 2016  09 46  -15.5040 26111.0   3406.0   7.4320 26332.2
 01 10 2016  09 47  -15.5034 26110.3   3406.4   7.4329 26331.6
 01 10 2016  09 48  -15.5033 26110.2   3406.2   7.4326 26331.4
 01 10 2016  09 49  -15.5023 26110.2   3407.8   7.4360 26331.7
 01 10 2016  09 50  -15.5024 26110.2   3407.2   7.4347 26331.6
 01 10 2016  09 51  -15.5024 26110.3   3406.9   7.4341 26331.6
 01 10 2016  09 52  -15.5030 26109.5   3406.4   7.4333 26330.7
 01 10 2016  09 53  -15.5040 26109.1   3406.1   7.4326 26330.3
 01 10 2016  09 54  -15.5026 26109.2   3407.8   7.4362 26330.7
 01 10 2016  09 55  -15.5043 26109.4   3408.3   7.4372 26330.9
 01 10 2016  09 56  -15.5040 26109.9   3408.1   7.4366 26331.4
 01 10 2016  09 57  -15.5042 26109.8   3409.0   7.4387 26331.4
 01 10 2016  09 58  -15.5047 26109.3   3409.2   7.4392 26331.0
 01 10 2016  09 59  -15.5059 26108.8   3407.9   7.4366 26330.2
 01 10 2016  10 00  -15.5051 26108.7   3408.8   7.4386 26330.3
 01 10 2016  10 01  -15.5049 26108.9   3409.8   7.4406 26330.6
 01 10 2016  10 02  -15.5051 26109.4   3409.9   7.4407 26331.1
 01 10 2016  10 03  -15.5050 26109.4   3410.9   7.4429 26331.2
 01 10 2016  10 04  -15.5058 26109.1   3411.0   7.4432 26331.0
 01 10 2016  10 05  -15.5049 26109.0   3411.6   7.4445 26330.9
 01 10 2016  10 06  -15.5061 26108.5   3410.7   7.4427 26330.3
 01 10 2016  10 07  -15.5046 26108.3   3410.8   7.4431 26330.1
 01 10 2016  10 08  -15.5048 26107.8   3409.9   7.4412 26329.6
 01 10 2016  10 09  -15.5047 26107.4   3410.3   7.4422 26329.2
 01 10 2016  10 10  -15.5052 26107.2   3410.7   7.4431 26329.0
 01 10 2016  10 11  -15.5055 26106.9   3410.6   7.4431 26328.7
 01 10 2016  10 12  -15.5052 26106.8   3411.0   7.4439 26328.7
 01 10 2016  10 13  -15.5046 26106.6   3411.8   7.4457 26328.6
 01 10 2016  10 14  -15.5049 26106.5   3412.0   7.4461 26328.5
 01 10 2016  10 15  -15.5049 26106.7   3412.7   7.4475 26328.8
 01 10 2016  10 16  -15.5048 26106.9   3412.1   7.4462 26328.9
 01 10 2016  10 17  -15.5058 26106.8   3412.6   7.4473 26328.9
 01 10 2016  10 18  -15.5058 26107.3   3412.6   7.4472 26329.4
 01 10 2016  10 19  -15.5061 26107.2   3412.6   7.4472 26329.3
 01 10 2016  10 20  -15.5056 26107.7   3413.1   7.4482 26329.9
 01 10 2016  10 21  -15.5045 26107.9   3413.6   7.4491 26330.1
 01 10 2016  10 22  -15.5039 26107.9   3414.5   7.4510 26330.2
 01 10 2016  10 23  -15.5043 26108.1   3414.3   7.4507 26330.4
 01 10 2016  10 24  -15.5028 26108.5   3414.6   7.4512 26330.8
 01 10 2016  10 25  -15.5037 26108.6   3413.9   7.4496 26330.9
 01 10 2016  10 26  -15.5040 26108.5   3413.3   7.4484 26330.6
 01 10 2016  10 27  -15.5037 26108.2   3413.5   7.4489 26330.4
 01 10 2016  10 28  -15.5030 26108.5   3414.2   7.4504 26330.8
 01 10 2016  10 29  -15.5028 26109.1   3414.2   7.4501 26331.3
 01 10 2016  10 30  -15.5021 26109.5   3414.1   7.4497 26331.8
 01 10 2016  10 31  -15.5020 26109.8   3414.6   7.4508 26332.2
 01 10 2016  10 32  -15.5012 26110.2   3414.4   7.4503 26332.5
 01 10 2016  10 33  -15.5017 26109.5   3414.2   7.4500 26331.8
 01 10 2016  10 34  -15.5009 26109.1   3413.7   7.4489 26331.3
 01 10 2016  10 35  -15.5026 26109.3   3413.3   7.4480 26331.4
 01 10 2016  10 36  -15.5016 26109.0   3414.7   7.4512 26331.3
 01 10 2016  10 37  -15.5004 26108.8   3413.4   7.4485 26331.0
 01 10 2016  10 38  -15.4994 26109.0   3413.7   7.4490 26331.2
 01 10 2016  10 39  -15.4997 26109.1   3414.2   7.4501 26331.4
 01 10 2016  10 40  -15.4995 26109.9   3414.8   7.4511 26332.2
 01 10 2016  10 41  -15.4993 26110.0   3414.8   7.4512 26332.4
 01 10 2016  10 42  -15.4976 26110.1   3414.0   7.4493 26332.4
 01 10 2016  10 43  -15.4960 26110.3   3414.0   7.4494 26332.6
 01 10 2016  10 44  -15.4956 26110.8   3414.5   7.4502 26333.1
 01 10 2016  10 45  -15.4957 26111.2   3413.1   7.4471 26333.3
 01 10 2016  10 46  -15.4961 26110.9   3414.2   7.4496 26333.2
 01 10 2016  10 47  -15.4960 26110.9   3413.8   7.4488 26333.1
 01 10 2016  10 48  -15.4962 26111.1   3414.1   7.4494 26333.4
 01 10 2016  10 49  -15.4951 26111.4   3414.0   7.4490 26333.7
 01 10 2016  10 50  -15.4957 26111.5   3413.4   7.4478 26333.6
 01 10 2016  10 51  -15.4958 26111.8   3413.6   7.4480 26334.0
 01 10 2016  10 52  -15.4968 26111.7   3414.2   7.4494 26333.9
 01 10 2016  10 53  -15.4975 26111.2   3414.0   7.4491 26333.5
 01 10 2016  10 54  -15.4961 26111.7   3413.4   7.4478 26333.8
 01 10 2016  10 55  -15.4956 26111.7   3414.4   7.4499 26333.9
 01 10 2016  10 56  -15.4957 26112.4   3414.4   7.4497 26334.7
 01 10 2016  10 57  -15.4959 26112.6   3414.1   7.4488 26334.8
 01 10 2016  10 58  -15.4950 26112.6   3413.5   7.4476 26334.7
 01 10 2016  10 59  -15.4948 26112.6   3413.4   7.4473 26334.7
 01 10 2016  11 00  -15.4944 26113.2   3413.9   7.4482 26335.4
 01 10 2016  11 01  -15.4944 26113.2   3413.6   7.4476 26335.3
 01 10 2016  11 02  -15.4944 26113.4   3413.4   7.4471 26335.6
 01 10 2016  11 03  -15.4940 26114.2   3413.8   7.4477 26336.4
 01 10 2016  11 04  -15.4935 26114.7   3413.8   7.4477 26336.9
 01 10 2016  11 05  -15.4925 26115.3   3414.2   7.4483 26337.5
 01 10 2016  11 06  -15.4923 26115.5   3413.5   7.4468 26337.6
 01 10 2016  11 07  -15.4915 26115.8   3413.2   7.4460 26337.9
 01 10 2016  11 08  -15.4923 26115.2   3412.6   7.4448 26337.3
 01 10 2016  11 09  -15.4928 26115.1   3411.6   7.4429 26337.0
 01 10 2016  11 10  -15.4926 26115.3   3411.5   7.4426 26337.2
 01 10 2016  11 11  -15.4917 26115.6   3411.4   7.4423 26337.4
 01 10 2016  11 12  -15.4916 26115.8   3410.9   7.4410 26337.6
 01 10 2016  11 13  -15.4912 26116.3   3412.1   7.4436 26338.3
 01 10 2016  11 14  -15.4904 26117.5   3411.1   7.4410 26339.3
 01 10 2016  11 15  -15.4894 26118.3   3411.5   7.4416 26340.1
 01 10 2016  11 16  -15.4888 26119.1   3411.3   7.4411 26340.9
 01 10 2016  11 17  -15.4891 26119.4   3410.7   7.4397 26341.2
 01 10 2016  11 18  -15.4896 26119.9   3409.7   7.4374 26341.5
 01 10 2016  11 19  -15.4887 26120.7   3409.2   7.4361 26342.3
 01 10 2016  11 20  -15.4883 26121.4   3409.7   7.4369 26343.0
 01 10 2016  11 21  -15.4881 26122.2   3409.2   7.4356 26343.7
 01 10 2016  11 22  -15.4881 26122.8   3409.1   7.4352 26344.3
 01 10 2016  11 23  -15.4880 26123.6   3408.8   7.4344 26345.0
 01 10 2016  11 24  -15.4874 26124.0   3408.4   7.4334 26345.5
 01 10 2016  11 25  -15.4876 26124.4   3407.8   7.4320 26345.7
 01 10 2016  11 26  -15.4877 26124.4   3407.4   7.4312 26345.7
 01 10 2016  11 27  -15.4875 26124.7   3406.2   7.4286 26345.8
 01 10 2016  11 28  -15.4866 26125.0   3406.9   7.4299 26346.2
 01 10 2016  11 29  -15.4877 26125.2   3406.3   7.4285 26346.3
 01 10 2016  11 30  -15.4882 26125.2   3406.2   7.4282 26346.3
 01 10 2016  11 31  -15.4880 26125.2   3406.2   7.4283 26346.3
 01 10 2016  11 32  -15.4880 26125.1   3406.2   7.4283 26346.2
 01 10 2016  11 33  -15.4868 26125.4   3405.3   7.4264 26346.4
 01 10 2016  11 34  -15.4865 26125.6   3405.3   7.4263 26346.6
 01 10 2016  11 35  -15.4865 26125.5   3404.8   7.4252 26346.4
 01 10 2016  11 36  -15.4859 26125.6   3404.7   7.4250 26346.5
 01 10 2016  11 37  -15.4854 26125.8   3404.6   7.4248 26346.7
 01 10 2016  11 38  -15.4853 26125.9   3404.6   7.4247 26346.8
 01 10 2016  11 39  -15.4852 26126.2   3403.8   7.4229 26347.0
 01 10 2016  11 40  -15.4852 26126.3   3403.9   7.4230 26347.1
 01 10 2016  11 41  -15.4846 26126.7   3403.6   7.4222 26347.4
 01 10 2016  11 42  -15.4849 26126.4   3403.5   7.4221 26347.2
 01 10 2016  11 43  -15.4849 26126.6   3403.3   7.4216 26347.4
 01 10 2016  11 44  -15.4849 26127.2   3403.1   7.4210 26347.9
 01 10 2016  11 45  -15.4847 26127.5   3402.5   7.4197 26348.1
 01 10 2016  11 46  -15.4848 26127.5   3403.0   7.4207 26348.1
 01 10 2016  11 47  -15.4846 26127.8   3402.4   7.4194 26348.4
 01 10 2016  11 48  -15.4844 26128.1   3402.2   7.4190 26348.6
 01 10 2016  11 49  -15.4844 26128.7   3401.3   7.4168 26349.2
 01 10 2016  11 50  -15.4840 26129.2   3401.3   7.4167 26349.7
 01 10 2016  11 51  -15.4833 26129.7   3400.7   7.4153 26350.1
 01 10 2016  11 52  -15.4838 26129.5   3400.9   7.4156 26349.9
 01 10 2016  11 53  -15.4846 26129.5   3400.0   7.4138 26349.8
 01 10 2016  11 54  -15.4837 26129.8   3399.9   7.4134 26350.0
 01 10 2016  11 55  -15.4837 26130.1   3399.6   7.4126 26350.3
 01 10 2016  11 56  -15.4833 26130.5   3400.3   7.4141 26350.8
 01 10 2016  11 57  -15.4827 26130.9   3399.9   7.4132 26351.1
 01 10 2016  11 58  -15.4820 26131.9   3398.9   7.4106 26352.0
 01 10 2016  11 59  -15.4813 26132.9   3399.9   7.4126 26353.1
 01 10 2016  12 00  -15.4811 26133.5   3400.2   7.4130 26353.8
 01 10 2016  12 01  -15.4824 26134.2   3398.2   7.4085 26354.2
 01 10 2016  12 02  -15.4838 26134.6   3397.0   7.4058 26354.4
 01 10 2016  12 03  -15.4836 26134.7   3397.1   7.4060 26354.6
 01 10 2016  12 04  -15.4838 26134.9   3396.6   7.4049 26354.7
 01 10 2016  12 05  -15.4835 26135.4   3396.0   7.4034 26355.2
 01 10 2016  12 06  -15.4831 26136.3   3396.6   7.4045 26356.1
 01 10 2016  12 07  -15.4828 26137.1   3395.5   7.4020 26356.7
 01 10 2016  12 08  -15.4823 26137.7   3395.2   7.4011 26357.3
 01 10 2016  12 09  -15.4831 26138.2   3394.3   7.3989 26357.7
 01 10 2016  12 10  -15.4833 26138.8   3393.1   7.3962 26358.1
 01 10 2016  12 11  -15.4839 26139.0   3393.4   7.3969 26358.4
 01 10 2016  12 12  -15.4835 26139.6   3392.4   7.3946 26358.8
 01 10 2016  12 13  -15.4845 26139.6   3391.9   7.3934 26358.7
 01 10 2016  12 14  -15.4839 26140.2   3390.5   7.3903 26359.2
 01 10 2016  12 15  -15.4848 26140.1   3390.6   7.3904 26359.1
 01 10 2016  12 16  -15.4835 26140.8   3390.1   7.3893 26359.7
 01 10 2016  12 17  -15.4844 26140.5   3390.8   7.3909 26359.5
 01 10 2016  12 18  -15.4847 26140.8   3389.7   7.3885 26359.6
 01 10 2016  12 19  -15.4856 26141.2   3388.6   7.3859 26359.9
 01 10 2016  12 20  -15.4852 26141.8   3388.9   7.3864 26360.6
 01 10 2016  12 21  -15.4854 26141.9   3388.5   7.3854 26360.6
 01 10 2016  12 22  -15.4862 26142.0   3388.0   7.3843 26360.6
 01 10 2016  12 23  -15.4862 26141.8   3387.3   7.3828 26360.4
 01 10 2016  12 24  -15.4867 26142.2   3386.4   7.3808 26360.6
 01 10 2016  12 25  -15.4867 26142.9   3385.8   7.3793 26361.2
 01 10 2016  12 26  -15.4864 26143.5   3386.8   7.3813 26361.9
 01 10 2016  12 27  -15.4885 26143.7   3386.6   7.3809 26362.1
 01 10 2016  12 28  -15.4876 26144.0   3386.5   7.3806 26362.4
 01 10 2016  12 29  -15.4888 26143.6   3384.1   7.3754 26361.7
 01 10 2016  12 30  -15.4902 26142.8   3384.9   7.3775 26361.0
 01 10 2016  12 31  -15.4895 26143.3   3385.3   7.3783 26361.5
 01 10 2016  12 32  -15.4890 26144.3   3384.8   7.3769 26362.5
 01 10 2016  12 33  -15.4897 26144.5   3384.9   7.3770 26362.7
 01 10 2016  12 34  -15.4913 26144.3   3384.4   7.3759 26362.5
 01 10 2016  12 35  -15.4909 26145.1   3383.6   7.3741 26363.1
 01 10 2016  12 36  -15.4916 26145.4   3382.8   7.3721 26363.3
 01 10 2016  12 37  -15.4923 26145.6   3383.9   7.3745 26363.6
 01 10 2016  12 38  -15.4929 26146.1   3382.0   7.3703 26363.9
 01 10 2016  12 39  -15.4930 26146.1   3381.0   7.3681 26363.8
 01 10 2016  12 40  -15.4923 26146.2   3380.4   7.3669 26363.8
 01 10 2016  12 41  -15.4936 26145.9   3380.3   7.3666 26363.5
 01 10 2016  12 42  -15.4933 26146.5   3380.5   7.3669 26364.1
 01 10 2016  12 43  -15.4932 26146.8   3380.1   7.3659 26364.4
 01 10 2016  12 44  -15.4938 26146.5   3379.4   7.3646 26364.0
 01 10 2016  12 45  -15.4942 26146.7   3379.1   7.3640 26364.1
 01 10 2016  12 46  -15.4947 26147.1   3378.8   7.3630 26364.5
 01 10 2016  12 47  -15.4953 26147.2   3379.1   7.3636 26364.6
 01 10 2016  12 48  -15.4971 26146.9   3378.1   7.3617 26364.2
 01 10 2016  12 49  -15.4978 26146.7   3378.1   7.3618 26364.1
 01 10 2016  12 50  -15.4971 26147.1   3379.4   7.3644 26364.6
 01 10 2016  12 51  -15.4980 26147.1   3378.2   7.3618 26364.4
 01 10 2016  12 52  -15.4975 26147.0   3379.2   7.3640 26364.5
 01 10 2016  12 53  -15.4973 26147.5   3378.7   7.3628 26364.9
 01 10 2016  12 54  -15.4980 26147.5   3377.2   7.3596 26364.7
 01 10 2016  12 55  -15.4984 26147.1   3378.1   7.3616 26364.4
 01 10 2016  12 56  -15.4992 26147.5   3377.9   7.3611 26364.8
 01 10 2016  12 57  -15.4990 26148.1   3377.1   7.3592 26365.3
 01 10 2016  12 58  -15.4991 26148.2   3377.0   7.3590 26365.4
 01 10 2016  12 59  -15.5004 26148.6   3377.3   7.3595 26365.9
 01 10 2016  13 00  -15.4997 26149.2   3377.0   7.3587 26366.3
 01 10 2016  13 01  -15.5004 26149.8   3377.2   7.3588 26367.0
 01 10 2016  13 02  -15.4999 26151.2   3377.8   7.3598 26368.5
 01 10 2016  13 03  -15.5007 26152.3   3376.5   7.3566 26369.4
 01 10 2016  13 04  -15.5011 26152.1   3376.1   7.3560 26369.2
 01 10 2016  13 05  -15.5029 26151.2   3374.0   7.3516 26368.0
 01 10 2016  13 06  -15.5033 26150.6   3373.8   7.3514 26367.4
 01 10 2016  13 07  -15.5028 26150.6   3375.0   7.3539 26367.5
 01 10 2016  13 08  -15.5032 26150.5   3373.8   7.3515 26367.2
 01 10 2016  13 09  -15.5039 26150.4   3373.5   7.3507 26367.1
 01 10 2016  13 10  -15.5031 26150.9   3374.3   7.3523 26367.7
 01 10 2016  13 11  -15.5051 26150.1   3373.9   7.3517 26366.8
 01 10 2016  13 12  -15.5056 26149.5   3373.8   7.3517 26366.2
 01 10 2016  13 13  -15.5062 26150.2   3373.0   7.3498 26366.8
 01 10 2016  13 14  -15.5063 26151.1   3374.6   7.3529 26368.0
 01 10 2016  13 15  -15.5065 26151.6   3374.1   7.3518 26368.3
 01 10 2016  13 16  -15.5068 26151.6   3374.0   7.3515 26368.4
 01 10 2016  13 17  -15.5069 26151.7   3374.4   7.3524 26368.5
 01 10 2016  13 18  -15.5078 26152.0   3373.1   7.3495 26368.6
 01 10 2016  13 19  -15.5074 26152.4   3374.7   7.3528 26369.2
 01 10 2016  13 20  -15.5081 26152.5   3373.5   7.3503 26369.2
 01 10 2016  13 21  -15.5084 26152.6   3372.4   7.3477 26369.2
 01 10 2016  13 22  -15.5097 26152.5   3373.5   7.3502 26369.2
 01 10 2016  13 23  -15.5097 26154.1   3372.6   7.3479 26370.7
 01 10 2016  13 24  -15.5097 26155.3   3372.8   7.3480 26371.9
 01 10 2016  13 25  -15.5115 26154.8   3372.1   7.3466 26371.3
 01 10 2016  13 26  -15.5114 26155.4   3372.8   7.3478 26371.9
 01 10 2016  13 27  -15.5128 26155.1   3372.0   7.3462 26371.5
 01 10 2016  13 28  -15.5134 26154.4   3371.0   7.3444 26370.7
 01 10 2016  13 29  -15.5122 26153.9   3371.8   7.3462 26370.4
 01 10 2016  13 30  -15.5112 26154.1   3372.8   7.3482 26370.6
 01 10 2016  13 31  -15.5116 26154.7   3371.5   7.3454 26371.1
 01 10 2016  13 32  -15.5111 26154.2   3372.3   7.3472 26370.7
 01 10 2016  13 33  -15.5123 26153.1   3370.9   7.3445 26369.4
 01 10 2016  13 34  -15.5113 26153.1   3370.9   7.3444 26369.5
 01 10 2016  13 35  -15.5112 26152.7   3371.5   7.3457 26369.1
 01 10 2016  13 36  -15.5119 26152.3   3372.1   7.3473 26368.8
 01 10 2016  13 37  -15.5123 26153.2   3372.2   7.3472 26369.7
 01 10 2016  13 38  -15.5122 26154.1   3374.0   7.3509 26370.9
 01 10 2016  13 39  -15.5125 26155.2   3374.6   7.3519 26372.1
 01 10 2016  13 40  -15.5131 26155.2   3374.1   7.3508 26372.0
 01 10 2016  13 41  -15.5142 26155.6   3372.8   7.3477 26372.1
 01 10 2016  13 42  -15.5145 26156.7   3372.8   7.3475 26373.2
 01 10 2016  13 43  -15.5140 26157.4   3372.4   7.3465 26373.9
 01 10 2016  13 44  -15.5138 26157.0   3372.6   7.3471 26373.6
 01 10 2016  13 45  -15.5138 26156.9   3371.9   7.3455 26373.3
 01 10 2016  13 46  -15.5125 26156.9   3372.5   7.3469 26373.4
 01 10 2016  13 47  -15.5126 26157.6   3373.3   7.3483 26374.2
 01 10 2016  13 48  -15.5107 26159.0   3374.6   7.3507 26375.7
 01 10 2016  13 49  -15.5110 26159.8   3374.6   7.3505 26376.6
 01 10 2016  13 50  -15.5115 26160.5   3374.0   7.3490 26377.1
 01 10 2016  13 51  -15.5104 26161.0   3372.9   7.3466 26377.5
 01 10 2016  13 52  -15.5104 26160.7   3372.2   7.3452 26377.2
 01 10 2016  13 53  -15.5121 26159.6   3371.8   7.3446 26376.0
 01 10 2016  13 54  -15.5117 26159.3   3371.3   7.3436 26375.6
 01 10 2016  13 55  -15.5108 26159.5   3372.0   7.3450 26376.0
 01 10 2016  13 56  -15.5102 26159.1   3371.0   7.3429 26375.4
 01 10 2016  13 57  -15.5098 26158.2   3370.9   7.3429 26374.5
 01 10 2016  13 58  -15.5094 26157.4   3370.4   7.3422 26373.7
 01 10 2016  13 59  -15.5088 26157.1   3371.2   7.3440 26373.5
 01 10 2016  14 00  -15.5085 26157.2   3371.0   7.3436 26373.5
 01 10 2016  14 01  -15.5093 26157.3   3371.3   7.3442 26373.6
 01 10 2016  14 02  -15.5087 26158.1   3371.4   7.3442 26374.4
 01 10 2016  14 03  -15.5089 26159.6   3372.1   7.3452 26376.0
 01 10 2016  14 04  -15.5096 26160.2   3371.3   7.3432 26376.6
 01 10 2016  14 05  -15.5087 26161.5   3371.3   7.3430 26377.8
 01 10 2016  14 06  -15.5101 26161.7   3370.2   7.3405 26377.9
 01 10 2016  14 07  -15.5112 26161.9   3371.3   7.3428 26378.3
 01 10 2016  14 08  -15.5127 26161.8   3369.8   7.3396 26378.0
 01 10 2016  14 09  -15.5125 26162.2   3369.1   7.3380 26378.2
 01 10 2016  14 10  -15.5119 26162.8   3368.6   7.3367 26378.8
 01 10 2016  14 11  -15.5133 26163.2   3368.1   7.3355 26379.1
 01 10 2016  14 12  -15.5128 26164.1   3367.2   7.3335 26379.9
 01 10 2016  14 13  -15.5120 26164.7   3367.4   7.3337 26380.5
 01 10 2016  14 14  -15.5106 26165.8   3366.8   7.3321 26381.5
 01 10 2016  14 15  -15.5109 26165.7   3365.5   7.3294 26381.3
 01 10 2016  14 16  -15.5103 26166.4   3365.5   7.3292 26382.0
 01 10 2016  14 17  -15.5104 26166.4   3364.8   7.3276 26381.8
 01 10 2016  14 18  -15.5101 26167.3   3364.1   7.3258 26382.7
 01 10 2016  14 19  -15.5095 26168.8   3364.5   7.3264 26384.2
 01 10 2016  14 20  -15.5100 26169.0   3362.5   7.3220 26384.1
 01 10 2016  14 21  -15.5088 26169.6   3362.9   7.3226 26384.8
 01 10 2016  14 22  -15.5089 26170.5   3363.2   7.3230 26385.7
 01 10 2016  14 23  -15.5085 26171.6   3362.4   7.3211 26386.8
 01 10 2016  14 24  -15.5062 26173.7   3361.4   7.3183 26388.6
 01 10 2016  14 25  -15.5047 26174.6   3359.9   7.3149 26389.4
 01 10 2016  14 26  -15.5019 26175.4   3359.5   7.3137 26390.1
 01 10 2016  14 27  -15.5011 26175.7   3357.5   7.3093 26390.1
 01 10 2016  14 28  -15.5028 26174.3   3356.3   7.3070 26388.6
 01 10 2016  14 29  -15.5033 26173.4   3354.1   7.3027 26387.4
 01 10 2016  14 30  -15.5031 26173.5   3354.6   7.3036 26387.6
 01 10 2016  14 31  -15.5030 26174.3   3353.9   7.3019 26388.3
 01 10 2016  14 32  -15.5041 26172.9   3353.0   7.3004 26386.8
 01 10 2016  14 33  -15.5049 26170.7   3352.3   7.2994 26384.6
 01 10 2016  14 34  -15.5051 26169.6   3352.8   7.3009 26383.5
 01 10 2016  14 35  -15.5042 26169.9   3354.2   7.3038 26384.0
 01 10 2016  14 36  -15.5040 26169.6   3354.2   7.3038 26383.7
 01 10 2016  14 37  -15.5047 26168.7   3353.4   7.3024 26382.7
 01 10 2016  14 38  -15.5049 26168.1   3353.2   7.3021 26382.0
 01 10 2016  14 39  -15.5045 26169.0   3354.0   7.3037 26383.1
 01 10 2016  14 40  -15.5057 26169.1   3354.2   7.3040 26383.2
 01 10 2016  14 41  -15.5057 26169.5   3353.7   7.3028 26383.5
 01 10 2016  14 42  -15.5068 26169.6   3354.0   7.3035 26383.6
 01 10 2016  14 43  -15.5070 26169.9   3354.6   7.3046 26384.1
 01 10 2016  14 44  -15.5063 26170.2   3355.0   7.3054 26384.3
 01 10 2016  14 45  -15.5064 26169.8   3353.6   7.3024 26383.8
 01 10 2016  14 46  -15.5056 26170.9   3354.6   7.3044 26385.0
 01 10 2016  14 47  -15.5049 26171.8   3353.4   7.3015 26385.7
 01 10 2016  14 48  -15.5043 26172.5   3354.5   7.3037 26386.6
 01 10 2016  14 49  -15.5043 26172.4   3353.3   7.3011 26386.4
 01 10 2016  14 50  -15.5058 26170.9   3350.5   7.2954 26384.5
 01 10 2016  14 51  -15.5062 26168.4   3351.0   7.2974 26382.1
 01 10 2016  14 52  -15.5059 26167.4   3351.0   7.2976 26381.0
 01 10 2016  14 53  -15.5053 26167.7   3351.3   7.2981 26381.5
 01 10 2016  14 54  -15.5060 26168.2   3352.6   7.3009 26382.1
 01 10 2016  14 55  -15.5065 26168.6   3352.9   7.3014 26382.6
 01 10 2016  14 56  -15.5068 26169.4   3352.7   7.3007 26383.3
 01 10 2016  14 57  -15.5060 26169.7   3353.2   7.3017 26383.7
 01 10 2016  14 58  -15.5051 26169.8   3353.2   7.3017 26383.7
 01 10 2016  14 59  -15.5043 26170.1   3353.3   7.3017 26384.0
 01 10 2016  15 00  -15.5034 26170.4   3352.5   7.2999 26384.3
 01 10 2016  15 01  -15.5038 26171.2   3353.7   7.3024 26385.2
 01 10 2016  15 02  -15.5040 26171.2   3352.2   7.2991 26385.0
 01 10 2016  15 03  -15.5028 26170.7   3352.6   7.3002 26384.6
 01 10 2016  15 04  -15.5027 26170.2   3352.8   7.3007 26384.1
 01 10 2016  15 05  -15.5026 26169.8   3351.8   7.2985 26383.6
 01 10 2016  15 06  -15.5008 26170.2   3352.2   7.2995 26384.0
 01 10 2016  15 07  -15.5014 26170.6   3351.5   7.2978 26384.3
 01 10 2016  15 08  -15.5008 26170.9   3351.5   7.2977 26384.7
 01 10 2016  15 09  -15.5011 26171.1   3351.6   7.2979 26384.8
 01 10 2016  15 10  -15.5014 26170.3   3352.3   7.2995 26384.1
 01 10 2016  15 11  -15.5024 26169.1   3350.4   7.2959 26382.7
 01 10 2016  15 12  -15.5040 26168.7   3351.4   7.2982 26382.4
 01 10 2016  15 13  -15.5045 26168.3   3351.4   7.2981 26382.1
 01 10 2016  15 14  -15.5051 26169.4   3350.7   7.2963 26383.0
 01 10 2016  15 15  -15.5054 26169.6   3350.0   7.2949 26383.1
 01 10 2016  15 16  -15.5068 26169.1   3349.1   7.2931 26382.5
 01 10 2016  15 17  -15.5059 26169.3   3349.6   7.2941 26382.8
 01 10 2016  15 18  -15.5073 26167.7   3348.3   7.2918 26381.0
 01 10 2016  15 19  -15.5062 26167.1   3348.2   7.2917 26380.4
 01 10 2016  15 20  -15.5058 26166.6   3349.1   7.2937 26380.1
 01 10 2016  15 21  -15.5046 26166.2   3348.7   7.2930 26379.6
 01 10 2016  15 22  -15.5058 26166.4   3347.8   7.2909 26379.7
 01 10 2016  15 23  -15.5061 26165.7   3348.6   7.2930 26379.1
 01 10 2016  15 24  -15.5057 26167.0   3348.8   7.2930 26380.4
 01 10 2016  15 25  -15.5048 26167.4   3348.5   7.2923 26380.8
 01 10 2016  15 26  -15.5051 26166.4   3347.9   7.2912 26379.7
 01 10 2016  15 27  -15.5053 26165.5   3347.5   7.2905 26378.8
 01 10 2016  15 28  -15.5040 26165.9   3349.1   7.2939 26379.3
 01 10 2016  15 29  -15.5046 26165.7   3348.6   7.2929 26379.1
 01 10 2016  15 30  -15.5051 26165.6   3348.3   7.2922 26379.0
 01 10 2016  15 31  -15.5038 26166.5   3347.6   7.2904 26379.7
 01 10 2016  15 32  -15.5046 26166.9   3349.1   7.2936 26380.4
 01 10 2016  15 33  -15.5050 26167.2   3347.3   7.2896 26380.5
 01 10 2016  15 34  -15.5058 26167.0   3347.8   7.2908 26380.3
 01 10 2016  15 35  -15.5072 26166.3   3346.6   7.2884 26379.4
 01 10 2016  15 36  -15.5072 26166.3   3346.6   7.2883 26379.5
 01 10 2016  15 37  -15.5069 26166.5   3346.5   7.2882 26379.6
 01 10 2016  15 38  -15.5073 26166.5   3345.9   7.2868 26379.5
 01 10 2016  15 39  -15.5073 26166.3   3345.5   7.2860 26379.3
 01 10 2016  15 40  -15.5081 26166.0   3345.2   7.2856 26378.9
 01 10 2016  15 41  -15.5080 26165.5   3344.4   7.2839 26378.3
 01 10 2016  15 42  -15.5078 26165.0   3344.6   7.2845 26377.9
 01 10 2016  15 43  -15.5077 26165.4   3344.4   7.2840 26378.3
 01 10 2016  15 44  -15.5077 26165.9   3345.4   7.2860 26378.9
 01 10 2016  15 45  -15.5085 26166.4   3345.3   7.2857 26379.4
 01 10 2016  15 46  -15.5079 26167.3   3345.0   7.2848 26380.2
 01 10 2016  15 47  -15.5098 26166.8   3344.7   7.2841 26379.7
 01 10 2016  15 48  -15.5096 26166.7   3344.4   7.2835 26379.6
 01 10 2016  15 49  -15.5095 26166.4   3343.7   7.2822 26379.2
 01 10 2016  15 50  -15.5099 26166.1   3343.1   7.2809 26378.8
 01 10 2016  15 51  -15.5100 26165.3   3343.8   7.2825 26378.1
 01 10 2016  15 52  -15.5112 26164.5   3342.5   7.2800 26377.1
 01 10 2016  15 53  -15.5104 26164.1   3342.5   7.2802 26376.8
 01 10 2016  15 54  -15.5102 26164.3   3342.1   7.2792 26376.8
 01 10 2016  15 55  -15.5110 26163.9   3342.2   7.2795 26376.5
 01 10 2016  15 56  -15.5110 26163.6   3341.8   7.2788 26376.2
 01 10 2016  15 57  -15.5100 26163.0   3342.7   7.2809 26375.7
 01 10 2016  15 58  -15.5103 26162.4   3343.1   7.2820 26375.2
 01 10 2016  15 59  -15.5119 26162.3   3342.9   7.2816 26375.0
 01 10 2016  16 00  -15.5120 26162.1   3342.7   7.2811 26374.8
 01 10 2016  16 01  -15.5120 26162.0   3343.4   7.2827 26374.8
 01 10 2016  16 02  -15.5108 26162.2   3344.1   7.2841 26375.0
 01 10 2016  16 03  -15.5113 26163.1   3343.4   7.2825 26375.8
 01 10 2016  16 04  -15.5117 26163.7   3345.4   7.2865 26376.7
 01 10 2016  16 05  -15.5121 26164.8   3345.0   7.2854 26377.8
 01 10 2016  16 06  -15.5130 26165.9   3343.9   7.2827 26378.7
 01 10 2016  16 07  -15.5126 26166.7   3344.2   7.2832 26379.6
 01 10 2016  16 08  -15.5128 26166.4   3344.1   7.2831 26379.2
 01 10 2016  16 09  -15.5132 26166.2   3343.1   7.2808 26378.9
 01 10 2016  16 10  -15.5141 26165.4   3342.8   7.2805 26378.1
 01 10 2016  16 11  -15.5142 26165.0   3342.2   7.2793 26377.6
 01 10 2016  16 12  -15.5147 26164.8   3342.4   7.2799 26377.4
 01 10 2016  16 13  -15.5153 26164.3   3341.5   7.2780 26376.8
 01 10 2016  16 14  -15.5153 26164.0   3342.7   7.2807 26376.7
 01 10 2016  16 15  -15.5154 26163.5   3341.2   7.2776 26376.0
 01 10 2016  16 16  -15.5149 26162.9   3342.4   7.2803 26375.5
 01 10 2016  16 17  -15.5146 26162.8   3341.1   7.2776 26375.3
 01 10 2016  16 18  -15.5147 26163.2   3341.8   7.2790 26375.7
 01 10 2016  16 19  -15.5141 26163.7   3340.8   7.2767 26376.2
 01 10 2016  16 20  -15.5135 26164.4   3341.2   7.2772 26376.8
 01 10 2016  16 21  -15.5139 26165.0   3341.8   7.2784 26377.5
 01 10 2016  16 22  -15.5136 26165.7   3341.5   7.2776 26378.2
 01 10 2016  16 23  -15.5147 26165.3   3340.7   7.2760 26377.7
 01 10 2016  16 24  -15.5147 26164.5   3340.0   7.2748 26376.9
 01 10 2016  16 25  -15.5157 26163.6   3338.8   7.2724 26375.8
 01 10 2016  16 26  -15.5160 26163.8   3338.4   7.2715 26375.9
 01 10 2016  16 27  -15.5148 26164.5   3339.7   7.2741 26376.8
 01 10 2016  16 28  -15.5150 26165.5   3340.2   7.2748 26377.9
 01 10 2016  16 29  -15.5150 26165.3   3338.7   7.2717 26377.5
 01 10 2016  16 30  -15.5166 26164.5   3338.1   7.2706 26376.6
 01 10 2016  16 31  -15.5168 26164.5   3338.7   7.2718 26376.7
 01 10 2016  16 32  -15.5160 26164.2   3337.4   7.2692 26376.2
 01 10 2016  16 33  -15.5173 26163.4   3337.3   7.2692 26375.4
 01 10 2016  16 34  -15.5175 26163.2   3338.2   7.2712 26375.3
 01 10 2016  16 35  -15.5176 26162.7   3337.3   7.2694 26374.7
 01 10 2016  16 36  -15.5177 26162.2   3337.7   7.2703 26374.2
 01 10 2016  16 37  -15.5178 26161.8   3336.5   7.2680 26373.7
 01 10 2016  16 38  -15.5189 26161.0   3337.1   7.2693 26373.0
 01 10 2016  16 39  -15.5179 26161.0   3337.5   7.2703 26373.0
 01 10 2016  16 40  -15.5186 26161.1   3337.1   7.2694 26373.1
 01 10 2016  16 41  -15.5196 26161.4   3336.9   7.2688 26373.4
 01 10 2016  16 42  -15.5196 26161.7   3337.3   7.2696 26373.7
 01 10 2016  16 43  -15.5202 26161.6   3338.0   7.2712 26373.7
 01 10 2016  16 44  -15.5203 26161.2   3337.1   7.2694 26373.2
 01 10 2016  16 45  -15.5205 26161.8   3335.8   7.2664 26373.6
 01 10 2016  16 46  -15.5217 26160.7   3335.2   7.2653 26372.5
 01 10 2016  16 47  -15.5210 26159.0   3335.7   7.2670 26370.8
 01 10 2016  16 48  -15.5233 26157.4   3335.1   7.2661 26369.2
 01 10 2016  16 49  -15.5232 26157.5   3336.9   7.2699 26369.4
 01 10 2016  16 50  -15.5236 26157.5   3336.1   7.2683 26369.4
 01 10 2016  16 51  -15.5236 26157.1   3337.3   7.2708 26369.1
 01 10 2016  16 52  -15.5248 26156.2   3337.5   7.2715 26368.2
 01 10 2016  16 53  -15.5263 26154.6   3336.3   7.2694 26366.6
 01 10 2016  16 54  -15.5261 26153.8   3336.7   7.2704 26365.8
 01 10 2016  16 55  -15.5279 26153.1   3336.1   7.2695 26365.0
 01 10 2016  16 56  -15.5284 26151.6   3337.4   7.2726 26363.7
 01 10 2016  16 57  -15.5299 26150.9   3336.6   7.2711 26362.9
 01 10 2016  16 58  -15.5304 26149.7   3337.6   7.2735 26361.8
 01 10 2016  16 59  -15.5296 26148.6   3338.2   7.2753 26360.8
 01 10 2016  17 00  -15.5313 26147.0   3337.6   7.2744 26359.2
 01 10 2016  17 01  -15.5305 26146.2   3337.8   7.2750 26358.4
 01 10 2016  17 02  -15.5313 26145.3   3339.7   7.2794 26357.7
 01 10 2016  17 03  -15.5322 26145.2   3338.9   7.2776 26357.5
 01 10 2016  17 04  -15.5315 26143.1   3339.5   7.2794 26355.6
 01 10 2016  17 05  -15.5329 26142.4   3339.2   7.2790 26354.8
 01 10 2016  17 06  -15.5333 26140.1   3339.7   7.2807 26352.6
 01 10 2016  17 07  -15.5329 26141.2   3340.2   7.2816 26353.8
 01 10 2016  17 08  -15.5341 26141.7   3341.1   7.2833 26354.3
 01 10 2016  17 09  -15.5338 26141.6   3341.2   7.2835 26354.3
 01 10 2016  17 10  -15.5358 26140.4   3340.6   7.2826 26353.0
 01 10 2016  17 11  -15.5360 26141.5   3340.8   7.2828 26354.2
 01 10 2016  17 12  -15.5369 26142.8   3341.5   7.2840 26355.4
 01 10 2016  17 13  -15.5384 26141.7   3341.0   7.2830 26354.3
 01 10 2016  17 14  -15.5381 26141.6   3340.7   7.2826 26354.2
 01 10 2016  17 15  -15.5364 26141.5   3341.5   7.2843 26354.2
 01 10 2016  17 16  -15.5376 26141.7   3340.5   7.2821 26354.2
 01 10 2016  17 17  -15.5367 26140.4   3341.0   7.2835 26353.1
 01 10 2016  17 18  -15.5375 26139.7   3339.9   7.2813 26352.2
 01 10 2016  17 19  -15.5383 26137.6   3339.4   7.2808 26350.1
 01 10 2016  17 20  -15.5395 26135.7   3339.2   7.2809 26348.2
 01 10 2016  17 21  -15.5382 26134.3   3340.7   7.2844 26347.0
 01 10 2016  17 22  -15.5382 26134.8   3341.7   7.2865 26347.5
 01 10 2016  17 23  -15.5386 26136.0   3343.5   7.2901 26349.0
 01 10 2016  17 24  -15.5392 26136.6   3344.0   7.2910 26349.6
 01 10 2016  17 25  -15.5394 26136.5   3343.6   7.2903 26349.5
 01 10 2016  17 26  -15.5391 26135.9   3343.4   7.2898 26348.9
 01 10 2016  17 27  -15.5386 26136.3   3343.8   7.2906 26349.3
 01 10 2016  17 28  -15.5389 26136.5   3343.3   7.2894 26349.5
 01 10 2016  17 29  -15.5385 26135.2   3342.6   7.2884 26348.1
 01 10 2016  17 30  -15.5388 26134.8   3342.9   7.2892 26347.7
 01 10 2016  17 31  -15.5387 26136.0   3343.1   7.2892 26348.9
 01 10 2016  17 32  -15.5387 26136.8   3344.6   7.2922 26350.0
 01 10 2016  17 33  -15.5403 26136.0   3342.9   7.2888 26349.0
 01 10 2016  17 34  -15.5393 26136.0   3343.7   7.2904 26349.0
 01 10 2016  17 35  -15.5408 26136.2   3343.5   7.2900 26349.2
 01 10 2016  17 36  -15.5414 26136.0   3341.8   7.2864 26348.8
 01 10 2016  17 37  -15.5415 26136.0   3342.4   7.2877 26348.9
 01 10 2016  17 38  -15.5428 26135.5   3341.2   7.2852 26348.2
 01 10 2016  17 39  -15.5438 26136.2   3341.5   7.2857 26348.9
 01 10 2016  17 40  -15.5444 26135.1   3340.3   7.2834 26347.7
 01 10 2016  17 41  -15.5447 26134.1   3340.1   7.2832 26346.7
 01 10 2016  17 42  -15.5448 26133.7   3339.1   7.2812 26346.1
 01 10 2016  17 43  -15.5462 26133.6   3339.6   7.2824 26346.1
 01 10 2016  17 44  -15.5468 26133.5   3339.5   7.2822 26346.0
 01 10 2016  17 45  -15.5463 26131.9   3339.2   7.2819 26344.4
 01 10 2016  17 46  -15.5468 26131.7   3339.0   7.2815 26344.2
 01 10 2016  17 47  -15.5469 26131.4   3339.4   7.2824 26343.9
 01 10 2016  17 48  -15.5466 26130.5   3338.7   7.2812 26342.9
 01 10 2016  17 49  -15.5461 26129.6   3338.5   7.2810 26342.0
 01 10 2016  17 50  -15.5464 26128.7   3338.4   7.2812 26341.1
 01 10 2016  17 51  -15.5476 26128.1   3339.0   7.2826 26340.6
 01 10 2016  17 52  -15.5471 26128.5   3339.4   7.2832 26341.1
 01 10 2016  17 53  -15.5470 26127.8   3339.1   7.2829 26340.3
 01 10 2016  17 54  -15.5471 26127.7   3339.3   7.2833 26340.3
 01 10 2016  17 55  -15.5483 26127.8   3338.8   7.2823 26340.2
 01 10 2016  17 56  -15.5491 26128.5   3338.7   7.2818 26340.9
 01 10 2016  17 57  -15.5504 26128.9   3339.2   7.2827 26341.4
 01 10 2016  17 58  -15.5509 26128.3   3338.7   7.2818 26340.7
 01 10 2016  17 59  -15.5511 26127.9   3338.4   7.2813 26340.4
 01 10 2016  18 00  -15.5518 26127.7   3337.8   7.2800 26340.0
 01 10 2016  18 01  -15.5516 26127.7   3338.5   7.2817 26340.1
 01 10 2016  18 02  -15.5527 26128.2   3338.3   7.2811 26340.6
 01 10 2016  18 03  -15.5529 26128.2   3338.5   7.2815 26340.6
 01 10 2016  18 04  -15.5522 26127.8   3339.7   7.2842 26340.4
 01 10 2016  18 05  -15.5531 26128.0   3338.4   7.2812 26340.4
 01 10 2016  18 06  -15.5550 26127.8   3339.3   7.2832 26340.3
 01 10 2016  18 07  -15.5553 26127.0   3338.2   7.2811 26339.4
 01 10 2016  18 08  -15.5557 26127.2   3339.4   7.2837 26339.8
 01 10 2016  18 09  -15.5569 26127.3   3338.8   7.2823 26339.7
 01 10 2016  18 10  -15.5585 26127.8   3339.2   7.2831 26340.4
 01 10 2016  18 11  -15.5595 26127.1   3338.5   7.2818 26339.5
 01 10 2016  18 12  -15.5587 26124.1   3338.7   7.2830 26336.6
 01 10 2016  18 13  -15.5583 26125.5   3339.7   7.2849 26338.1
 01 10 2016  18 14  -15.5588 26124.5   3341.1   7.2881 26337.3
 01 10 2016  18 15  -15.5600 26123.8   3340.7   7.2875 26336.6
 01 10 2016  18 16  -15.5603 26123.9   3341.8   7.2896 26336.8
 01 10 2016  18 17  -15.5613 26122.3   3342.2   7.2910 26335.3
 01 10 2016  18 18  -15.5623 26121.1   3340.4   7.2875 26333.8
 01 10 2016  18 19  -15.5614 26120.2   3341.8   7.2908 26333.1
 01 10 2016  18 20  -15.5622 26118.3   3340.9   7.2893 26331.1
 01 10 2016  18 21  -15.5621 26117.1   3342.7   7.2936 26330.1
 01 10 2016  18 22  -15.5618 26115.4   3343.4   7.2955 26328.5
 01 10 2016  18 23  -15.5618 26112.9   3343.2   7.2958 26326.1
 01 10 2016  18 24  -15.5614 26111.3   3343.2   7.2962 26324.5
 01 10 2016  18 25  -15.5606 26110.3   3342.2   7.2943 26323.3
 01 10 2016  18 26  -15.5597 26109.2   3344.5   7.2995 26322.6
 01 10 2016  18 27  -15.5599 26107.5   3343.4   7.2978 26320.7
 01 10 2016  18 28  -15.5577 26105.8   3343.9   7.2992 26319.1
 01 10 2016  18 29  -15.5586 26104.2   3344.6   7.3012 26317.6
 01 10 2016  18 30  -15.5586 26103.3   3345.2   7.3028 26316.7
 01 10 2016  18 31  -15.5570 26103.6   3348.1   7.3090 26317.5
 01 10 2016  18 32  -15.5556 26102.9   3349.1   7.3114 26316.8
 01 10 2016  18 33  -15.5548 26102.9   3349.2   7.3115 26316.9
 01 10 2016  18 34  -15.5545 26101.9   3349.6   7.3126 26316.0
 01 10 2016  18 35  -15.5541 26100.3   3348.7   7.3112 26314.2
 01 10 2016  18 36  -15.5535 26098.9   3349.8   7.3140 26313.0
 01 10 2016  18 37  -15.5527 26098.0   3352.2   7.3194 26312.5
 01 10 2016  18 38  -15.5529 26097.8   3351.1   7.3170 26312.1
 01 10 2016  18 39  -15.5529 26098.0   3352.4   7.3198 26312.4
 01 10 2016  18 40  -15.5519 26098.2   3354.1   7.3234 26312.8
 01 10 2016  18 41  -15.5527 26097.4   3355.3   7.3261 26312.2
 01 10 2016  18 42  -15.5523 26096.8   3355.4   7.3265 26311.6
 01 10 2016  18 43  -15.5526 26095.7   3355.9   7.3279 26310.6
 01 10 2016  18 44  -15.5523 26095.8   3355.7   7.3276 26310.7
 01 10 2016  18 45  -15.5516 26095.8   3357.3   7.3310 26310.9
 01 10 2016  18 46  -15.5508 26096.3   3359.9   7.3365 26311.7
 01 10 2016  18 47  -15.5511 26097.0   3359.7   7.3358 26312.4
 01 10 2016  18 48  -15.5508 26097.5   3360.7   7.3378 26313.0
 01 10 2016  18 49  -15.5505 26097.4   3360.8   7.3382 26312.9
 01 10 2016  18 50  -15.5515 26097.1   3361.5   7.3398 26312.7
 01 10 2016  18 51  -15.5527 26096.2   3360.5   7.3378 26311.7
 01 10 2016  18 52  -15.5526 26095.6   3361.0   7.3391 26311.2
 01 10 2016  18 53  -15.5528 26095.5   3363.0   7.3433 26311.3
 01 10 2016  18 54  -15.5532 26095.8   3362.4   7.3420 26311.5
 01 10 2016  18 55  -15.5529 26095.7   3364.3   7.3462 26311.7
 01 10 2016  18 56  -15.5533 26095.9   3362.8   7.3429 26311.7
 01 10 2016  18 57  -15.5522 26096.0   3363.3   7.3440 26311.8
 01 10 2016  18 58  -15.5507 26095.1   3364.9   7.3476 26311.1
 01 10 2016  18 59  -15.5512 26094.0   3365.9   7.3500 26310.2
 01 10 2016  19 00  -15.5497 26094.2   3366.1   7.3504 26310.5
 01 10 2016  19 01  -15.5502 26094.0   3365.9   7.3501 26310.2
 01 10 2016  19 02  -15.5488 26093.4   3368.4   7.3555 26309.9
 01 10 2016  19 03  -15.5491 26092.4   3368.1   7.3553 26308.9
 01 10 2016  19 04  -15.5479 26092.7   3367.0   7.3528 26309.1
 01 10 2016  19 05  -15.5463 26092.2   3369.1   7.3574 26308.8
 01 10 2016  19 06  -15.5465 26091.7   3369.7   7.3589 26308.4
 01 10 2016  19 07  -15.5457 26092.6   3371.2   7.3619 26309.5
 01 10 2016  19 08  -15.5469 26093.3   3371.8   7.3630 26310.3
 01 10 2016  19 09  -15.5467 26094.3   3372.3   7.3637 26311.3
 01 10 2016  19 10  -15.5482 26094.2   3372.2   7.3636 26311.2
 01 10 2016  19 11  -15.5478 26092.9   3370.3   7.3599 26309.7
 01 10 2016  19 12  -15.5471 26092.0   3372.6   7.3651 26309.0
 01 10 2016  19 13  -15.5464 26094.2   3373.1   7.3656 26311.3
 01 10 2016  19 14  -15.5455 26096.2   3374.4   7.3677 26313.5
 01 10 2016  19 15  -15.5456 26097.0   3376.5   7.3720 26314.5
 01 10 2016  19 16  -15.5450 26097.7   3376.0   7.3708 26315.2
 01 10 2016  19 17  -15.5443 26097.6   3376.9   7.3728 26315.1
 01 10 2016  19 18  -15.5458 26097.3   3375.2   7.3692 26314.6
 01 10 2016  19 19  -15.5443 26097.0   3375.7   7.3704 26314.4
 01 10 2016  19 20  -15.5457 26096.5   3375.8   7.3708 26313.9
 01 10 2016  19 21  -15.5463 26096.1   3375.7   7.3707 26313.5
 01 10 2016  19 22  -15.5452 26096.7   3376.1   7.3714 26314.2
 01 10 2016  19 23  -15.5446 26096.7   3375.8   7.3706 26314.1
 01 10 2016  19 24  -15.5436 26096.7   3378.5   7.3766 26314.5
 01 10 2016  19 25  -15.5429 26096.8   3378.5   7.3765 26314.6
 01 10 2016  19 26  -15.5439 26096.7   3377.9   7.3753 26314.5
 01 10 2016  19 27  -15.5437 26096.9   3379.4   7.3784 26314.8
 01 10 2016  19 28  -15.5439 26096.6   3379.7   7.3791 26314.5
 01 10 2016  19 29  -15.5425 26097.3   3379.5   7.3786 26315.2
 01 10 2016  19 30  -15.5424 26097.4   3381.2   7.3822 26315.5
 01 10 2016  19 31  -15.5408 26098.0   3381.8   7.3833 26316.2
 01 10 2016  19 32  -15.5415 26097.5   3381.7   7.3833 26315.7
 01 10 2016  19 33  -15.5394 26097.7   3381.8   7.3833 26315.9
 01 10 2016  19 34  -15.5394 26097.9   3382.7   7.3852 26316.3
 01 10 2016  19 35  -15.5402 26097.8   3383.6   7.3873 26316.2
 01 10 2016  19 36  -15.5382 26098.4   3382.8   7.3854 26316.7
 01 10 2016  19 37  -15.5378 26098.4   3384.0   7.3879 26316.9
 01 10 2016  19 38  -15.5366 26099.1   3383.7   7.3872 26317.5
 01 10 2016  19 39  -15.5370 26099.3   3383.7   7.3871 26317.7
 01 10 2016  19 40  -15.5363 26099.3   3384.2   7.3882 26317.8
 01 10 2016  19 41  -15.5360 26099.5   3384.4   7.3885 26318.0
 01 10 2016  19 42  -15.5356 26099.4   3384.6   7.3890 26317.9
 01 10 2016  19 43  -15.5342 26099.4   3385.3   7.3904 26318.0
 01 10 2016  19 44  -15.5349 26099.5   3384.6   7.3889 26318.0
 01 10 2016  19 45  -15.5349 26099.6   3384.8   7.3893 26318.1
 01 10 2016  19 46  -15.5336 26100.3   3384.6   7.3887 26318.8
 01 10 2016  19 47  -15.5333 26100.4   3385.5   7.3906 26319.1
 01 10 2016  19 48  -15.5331 26100.6   3385.6   7.3908 26319.2
 01 10 2016  19 49  -15.5325 26100.9   3384.7   7.3888 26319.5
 01 10 2016  19 50  -15.5315 26101.2   3386.7   7.3931 26320.0
 01 10 2016  19 51  -15.5320 26101.3   3385.4   7.3902 26320.0
 01 10 2016  19 52  -15.5314 26101.4   3386.6   7.3926 26320.2
 01 10 2016  19 53  -15.5312 26101.6   3386.3   7.3920 26320.4
 01 10 2016  19 54  -15.5315 26101.9   3386.3   7.3919 26320.6
 01 10 2016  19 55  -15.5313 26102.0   3386.8   7.3929 26320.8
 01 10 2016  19 56  -15.5312 26102.2   3386.8   7.3930 26321.0
 01 10 2016  19 57  -15.5308 26102.4   3386.8   7.3929 26321.2
 01 10 2016  19 58  -15.5307 26102.6   3386.8   7.3928 26321.4
 01 10 2016  19 59  -15.5303 26103.1   3387.0   7.3932 26322.0
 01 10 2016  20 00  -15.5298 26103.6   3387.5   7.3940 26322.5
 01 10 2016  20 01  -15.5299 26103.7   3387.5   7.3939 26322.6
 01 10 2016  20 02  -15.5298 26103.7   3387.4   7.3937 26322.6
 01 10 2016  20 03  -15.5298 26103.6   3387.2   7.3933 26322.5
 01 10 2016  20 04  -15.5298 26103.6   3387.1   7.3932 26322.4
 01 10 2016  20 05  -15.5298 26103.6   3387.1   7.3932 26322.4
 01 10 2016  20 06  -15.5299 26103.5   3387.1   7.3932 26322.4
 01 10 2016  20 07  -15.5297 26103.9   3387.1   7.3931 26322.7
 01 10 2016  20 08  -15.5296 26104.4   3387.5   7.3937 26323.2
 01 10 2016  20 09  -15.5295 26104.7   3387.6   7.3940 26323.6
 01 10 2016  20 10  -15.5294 26104.8   3387.5   7.3937 26323.7
 01 10 2016  20 11  -15.5295 26104.6   3387.6   7.3939 26323.5
 01 10 2016  20 12  -15.5296 26105.0   3387.6   7.3939 26323.9
 01 10 2016  20 13  -15.5294 26105.6   3388.0   7.3946 26324.6
 01 10 2016  20 14  -15.5288 26106.2   3387.1   7.3925 26325.0
 01 10 2016  20 15  -15.5305 26106.0   3386.5   7.3912 26324.7
 01 10 2016  20 16  -15.5296 26106.4   3386.5   7.3911 26325.1
 01 10 2016  20 17  -15.5291 26106.4   3386.9   7.3920 26325.2
 01 10 2016  20 18  -15.5294 26106.4   3387.7   7.3936 26325.3
 01 10 2016  20 19  -15.5290 26106.6   3387.3   7.3928 26325.4
 01 10 2016  20 20  -15.5302 26106.2   3387.7   7.3937 26325.0
 01 10 2016  20 21  -15.5290 26106.4   3387.4   7.3931 26325.2
 01 10 2016  20 22  -15.5291 26106.2   3386.8   7.3918 26325.0
 01 10 2016  20 23  -15.5299 26105.9   3386.4   7.3910 26324.7
 01 10 2016  20 24  -15.5290 26105.9   3387.1   7.3926 26324.7
 01 10 2016  20 25  -15.5285 26105.7   3387.2   7.3927 26324.5
 01 10 2016  20 26  -15.5295 26105.4   3385.8   7.3898 26324.1
 01 10 2016  20 27  -15.5295 26105.0   3387.6   7.3938 26323.9
 01 10 2016  20 28  -15.5284 26105.1   3387.0   7.3925 26323.9
 01 10 2016  20 29  -15.5278 26105.1   3387.7   7.3940 26324.0
 01 10 2016  20 30  -15.5286 26105.3   3387.2   7.3929 26324.1
 01 10 2016  20 31  -15.5273 26106.0   3388.2   7.3948 26325.0
 01 10 2016  20 32  -15.5271 26106.6   3388.7   7.3958 26325.6
 01 10 2016  20 33  -15.5275 26106.6   3388.7   7.3957 26325.6
 01 10 2016  20 34  -15.5275 26106.9   3388.0   7.3941 26325.9
 01 10 2016  20 35  -15.5260 26107.1   3389.3   7.3970 26326.2
 01 10 2016  20 36  -15.5255 26107.4   3389.0   7.3962 26326.4
 01 10 2016  20 37  -15.5271 26107.1   3388.3   7.3947 26326.0
 01 10 2016  20 38  -15.5260 26107.4   3388.6   7.3952 26326.4
 01 10 2016  20 39  -15.5262 26107.3   3388.9   7.3960 26326.3
 01 10 2016  20 40  -15.5273 26107.2   3388.7   7.3957 26326.2
 01 10 2016  20 41  -15.5266 26107.2   3389.2   7.3967 26326.3
 01 10 2016  20 42  -15.5269 26107.4   3388.1   7.3942 26326.3
 01 10 2016  20 43  -15.5255 26107.7   3388.5   7.3950 26326.7
 01 10 2016  20 44  -15.5265 26107.5   3388.3   7.3948 26326.5
 01 10 2016  20 45  -15.5260 26107.5   3388.9   7.3959 26326.5
 01 10 2016  20 46  -15.5262 26107.4   3388.4   7.3950 26326.4
 01 10 2016  20 47  -15.5256 26107.6   3388.9   7.3960 26326.7
 01 10 2016  20 48  -15.5260 26107.7   3388.6   7.3953 26326.7
 01 10 2016  20 49  -15.5256 26108.0   3389.3   7.3967 26327.1
 01 10 2016  20 50  -15.5259 26108.3   3389.6   7.3972 26327.4
 01 10 2016  20 51  -15.5261 26108.3   3389.4   7.3967 26327.4
 01 10 2016  20 52  -15.5263 26108.2   3390.2   7.3985 26327.4
 01 10 2016  20 53  -15.5266 26108.0   3390.1   7.3985 26327.2
 01 10 2016  20 54  -15.5263 26108.0   3390.0   7.3982 26327.1
 01 10 2016  20 55  -15.5271 26107.8   3389.2   7.3964 26326.9
 01 10 2016  20 56  -15.5258 26107.7   3389.9   7.3981 26326.8
 01 10 2016  20 57  -15.5258 26107.8   3390.0   7.3982 26327.0
 01 10 2016  20 58  -15.5252 26108.4   3389.7   7.3974 26327.5
 01 10 2016  20 59  -15.5259 26108.6   3390.9   7.3999 26327.9
 01 10 2016  21 00  -15.5261 26109.1   3389.9   7.3977 26328.3
 01 10 2016  21 01  -15.5256 26109.2   3389.8   7.3975 26328.3
 01 10 2016  21 02  -15.5255 26109.1   3390.9   7.3998 26328.4
 01 10 2016  21 03  -15.5255 26109.5   3390.8   7.3995 26328.7
 01 10 2016  21 04  -15.5252 26110.1   3391.4   7.4006 26329.4
 01 10 2016  21 05  -15.5255 26110.6   3391.3   7.4003 26329.9
 01 10 2016  21 06  -15.5258 26110.8   3391.6   7.4008 26330.1
 01 10 2016  21 07  -15.5254 26111.1   3391.4   7.4004 26330.4
 01 10 2016  21 08  -15.5250 26111.3   3391.4   7.4002 26330.6
 01 10 2016  21 09  -15.5265 26110.3   3392.0   7.4020 26329.7
 01 10 2016  21 10  -15.5260 26110.4   3390.7   7.3989 26329.7
 01 10 2016  21 11  -15.5260 26110.3   3391.0   7.3998 26329.6
 01 10 2016  21 12  -15.5266 26110.2   3390.8   7.3994 26329.4
 01 10 2016  21 13  -15.5264 26109.8   3391.4   7.4007 26329.1
 01 10 2016  21 14  -15.5270 26109.4   3391.3   7.4007 26328.7
 01 10 2016  21 15  -15.5274 26109.4   3392.0   7.4022 26328.8
 01 10 2016  21 16  -15.5272 26109.8   3391.3   7.4005 26329.1
 01 10 2016  21 17  -15.5270 26110.0   3391.7   7.4014 26329.4
 01 10 2016  21 18  -15.5271 26110.1   3391.8   7.4016 26329.5
 01 10 2016  21 19  -15.5276 26110.1   3392.2   7.4023 26329.5
 01 10 2016  21 20  -15.5281 26110.2   3392.0   7.4019 26329.7
 01 10 2016  21 21  -15.5275 26110.8   3392.3   7.4023 26330.3
 01 10 2016  21 22  -15.5281 26110.8   3392.6   7.4030 26330.3
 01 10 2016  21 23  -15.5280 26110.9   3392.5   7.4028 26330.3
 01 10 2016  21 24  -15.5279 26110.8   3392.7   7.4032 26330.3
 01 10 2016  21 25  -15.5278 26111.2   3392.6   7.4029 26330.7
 01 10 2016  21 26  -15.5276 26111.3   3392.8   7.4032 26330.8
 01 10 2016  21 27  -15.5279 26111.5   3392.7   7.4030 26330.9
 01 10 2016  21 28  -15.5273 26111.6   3393.4   7.4045 26331.1
 01 10 2016  21 29  -15.5272 26111.5   3392.6   7.4029 26330.9
 01 10 2016  21 30  -15.5272 26111.3   3391.9   7.4014 26330.7
 01 10 2016  21 31  -15.5261 26111.4   3392.6   7.4029 26330.9
 01 10 2016  21 32  -15.5263 26111.1   3393.2   7.4042 26330.7
 01 10 2016  21 33  -15.5262 26111.4   3393.1   7.4040 26331.0
 01 10 2016  21 34  -15.5265 26111.6   3393.1   7.4038 26331.1
 01 10 2016  21 35  -15.5251 26112.2   3393.4   7.4044 26331.8
 01 10 2016  21 36  -15.5263 26112.2   3393.3   7.4041 26331.7
 01 10 2016  21 37  -15.5258 26112.9   3392.7   7.4026 26332.3
 01 10 2016  21 38  -15.5252 26113.1   3392.9   7.4031 26332.6
 01 10 2016  21 39  -15.5255 26113.1   3393.1   7.4035 26332.7
 01 10 2016  21 40  -15.5256 26113.1   3393.7   7.4047 26332.7
 01 10 2016  21 41  -15.5251 26113.6   3393.1   7.4034 26333.1
 01 10 2016  21 42  -15.5250 26113.6   3393.5   7.4043 26333.1
 01 10 2016  21 43  -15.5253 26113.1   3395.0   7.4075 26332.8
 01 10 2016  21 44  -15.5269 26112.5   3393.2   7.4038 26332.0
 01 10 2016  21 45  -15.5265 26112.3   3393.2   7.4039 26331.8
 01 10 2016  21 46  -15.5262 26112.2   3393.6   7.4048 26331.8
 01 10 2016  21 47  -15.5264 26111.9   3393.8   7.4053 26331.6
 01 10 2016  21 48  -15.5260 26112.5   3393.9   7.4054 26332.1
 01 10 2016  21 49  -15.5256 26112.8   3394.3   7.4061 26332.5
 01 10 2016  21 50  -15.5255 26113.0   3394.5   7.4065 26332.7
 01 10 2016  21 51  -15.5262 26113.1   3395.0   7.4075 26332.9
 01 10 2016  21 52  -15.5260 26113.6   3395.2   7.4079 26333.4
 01 10 2016  21 53  -15.5257 26114.3   3394.2   7.4055 26333.9
 01 10 2016  21 54  -15.5261 26114.1   3395.1   7.4074 26333.9
 01 10 2016  21 55  -15.5256 26114.1   3395.3   7.4080 26333.9
 01 10 2016  21 56  -15.5263 26113.8   3395.1   7.4076 26333.5
 01 10 2016  21 57  -15.5250 26113.8   3395.6   7.4087 26333.6
 01 10 2016  21 58  -15.5251 26113.6   3394.4   7.4062 26333.3
 01 10 2016  21 59  -15.5250 26113.5   3394.3   7.4058 26333.2
 01 10 2016  22 00  -15.5253 26113.2   3393.9   7.4051 26332.8
 01 10 2016  22 01  -15.5252 26112.7   3394.9   7.4075 26332.5
 01 10 2016  22 02  -15.5255 26112.4   3395.0   7.4078 26332.2
 01 10 2016  22 03  -15.5255 26112.3   3394.7   7.4071 26332.1
 01 10 2016  22 04  -15.5262 26112.0   3394.5   7.4068 26331.7
 01 10 2016  22 05  -15.5255 26111.9   3394.4   7.4066 26331.7
 01 10 2016  22 06  -15.5254 26111.7   3394.8   7.4075 26331.5
 01 10 2016  22 07  -15.5256 26111.2   3395.1   7.4083 26331.0
 01 10 2016  22 08  -15.5258 26110.9   3394.2   7.4065 26330.5
 01 10 2016  22 09  -15.5253 26110.6   3394.3   7.4067 26330.3
 01 10 2016  22 10  -15.5258 26110.1   3394.2   7.4067 26329.8
 01 10 2016  22 11  -15.5263 26110.0   3394.0   7.4062 26329.6
 01 10 2016  22 12  -15.5259 26109.6   3395.7   7.4101 26329.5
 01 10 2016  22 13  -15.5242 26110.0   3396.1   7.4107 26329.9
 01 10 2016  22 14  -15.5254 26109.3   3395.8   7.4104 26329.2
 01 10 2016  22 15  -15.5244 26109.1   3396.6   7.4122 26329.1
 01 10 2016  22 16  -15.5246 26109.0   3396.5   7.4119 26329.0
 01 10 2016  22 17  -15.5244 26108.7   3396.7   7.4125 26328.8
 01 10 2016  22 18  -15.5247 26108.3   3396.6   7.4123 26328.3
 01 10 2016  22 19  -15.5239 26108.3   3395.9   7.4107 26328.2
 01 10 2016  22 20  -15.5249 26107.7   3396.0   7.4113 26327.6
 01 10 2016  22 21  -15.5239 26107.6   3396.1   7.4115 26327.6
 01 10 2016  22 22  -15.5230 26107.3   3396.3   7.4119 26327.3
 01 10 2016  22 23  -15.5241 26106.8   3396.3   7.4121 26326.8
 01 10 2016  22 24  -15.5237 26106.8   3395.7   7.4109 26326.7
 01 10 2016  22 25  -15.5235 26106.8   3396.4   7.4123 26326.8
 01 10 2016  22 26  -15.5233 26107.0   3396.3   7.4121 26327.0
 01 10 2016  22 27  -15.5233 26106.9   3396.7   7.4129 26326.9
 01 10 2016  22 28  -15.5231 26106.8   3396.3   7.4121 26326.8
 01 10 2016  22 29  -15.5224 26106.5   3396.0   7.4117 26326.4
 01 10 2016  22 30  -15.5236 26105.4   3396.1   7.4121 26325.3
 01 10 2016  22 31  -15.5244 26104.9   3395.0   7.4099 26324.7
 01 10 2016  22 32  -15.5235 26104.6   3396.2   7.4125 26324.6
 01 10 2016  22 33  -15.5236 26104.4   3396.8   7.4139 26324.4
 01 10 2016  22 34  -15.5242 26104.3   3396.2   7.4126 26324.3
 01 10 2016  22 35  -15.5241 26104.1   3396.8   7.4139 26324.1
 01 10 2016  22 36  -15.5246 26103.6   3396.5   7.4135 26323.6
 01 10 2016  22 37  -15.5245 26103.4   3396.3   7.4131 26323.4
 01 10 2016  22 38  -15.5248 26103.1   3396.8   7.4141 26323.2
 01 10 2016  22 39  -15.5251 26102.8   3396.4   7.4135 26322.8
 01 10 2016  22 40  -15.5248 26102.5   3396.7   7.4142 26322.6
 01 10 2016  22 41  -15.5244 26102.6   3396.6   7.4140 26322.6
 01 10 2016  22 42  -15.5239 26102.5   3398.0   7.4170 26322.7
 01 10 2016  22 43  -15.5246 26102.7   3397.2   7.4153 26322.8
 01 10 2016  22 44  -15.5246 26102.6   3397.5   7.4160 26322.8
 01 10 2016  22 45  -15.5246 26102.8   3396.5   7.4137 26322.9
 01 10 2016  22 46  -15.5229 26102.7   3397.9   7.4168 26322.9
 01 10 2016  22 47  -15.5234 26102.4   3398.7   7.4185 26322.7
 01 10 2016  22 48  -15.5237 26102.6   3396.6   7.4139 26322.6
 01 10 2016  22 49  -15.5238 26102.3   3396.6   7.4141 26322.4
 01 10 2016  22 50  -15.5225 26102.4   3398.1   7.4172 26322.6
 01 10 2016  22 51  -15.5238 26101.7   3398.9   7.4192 26322.1
 01 10 2016  22 52  -15.5237 26101.8   3398.8   7.4190 26322.1
 01 10 2016  22 53  -15.5232 26101.9   3397.1   7.4152 26322.0
 01 10 2016  22 54  -15.5224 26101.3   3398.3   7.4180 26321.6
 01 10 2016  22 55  -15.5232 26100.9   3396.7   7.4147 26321.0
 01 10 2016  22 56  -15.5226 26100.6   3397.7   7.4169 26320.9
 01 10 2016  22 57  -15.5221 26100.6   3397.5   7.4165 26320.8
 01 10 2016  22 58  -15.5218 26100.4   3397.8   7.4171 26320.6
 01 10 2016  22 59  -15.5221 26100.1   3397.8   7.4173 26320.3
 01 10 2016  23 00  -15.5220 26100.2   3398.2   7.4181 26320.5
 01 10 2016  23 01  -15.5222 26100.2   3397.4   7.4164 26320.4
 01 10 2016  23 02  -15.5216 26099.9   3398.0   7.4177 26320.1
 01 10 2016  23 03  -15.5215 26100.1   3398.0   7.4176 26320.4
 01 10 2016  23 04  -15.5213 26100.5   3398.7   7.4190 26320.9
 01 10 2016  23 05  -15.5215 26100.7   3398.1   7.4178 26320.9
 01 10 2016  23 06  -15.5210 26100.7   3398.6   7.4188 26321.0
 01 10 2016  23 07  -15.5217 26100.5   3398.6   7.4190 26320.8
 01 10 2016  23 08  -15.5199 26100.5   3398.1   7.4179 26320.8
 01 10 2016  23 09  -15.5204 26099.7   3398.6   7.4191 26320.0
 01 10 2016  23 10  -15.5211 26099.2   3398.1   7.4183 26319.5
 01 10 2016  23 11  -15.5197 26099.3   3399.7   7.4215 26319.8
 01 10 2016  23 12  -15.5195 26100.1   3397.5   7.4166 26320.3
 01 10 2016  23 13  -15.5182 26100.7   3398.6   7.4189 26321.1
 01 10 2016  23 14  -15.5178 26101.1   3399.0   7.4195 26321.5
 01 10 2016  23 15  -15.5180 26101.6   3398.8   7.4190 26322.0
 01 10 2016  23 16  -15.5177 26102.2   3399.5   7.4203 26322.7
 01 10 2016  23 17  -15.5180 26102.9   3400.1   7.4215 26323.4
 01 10 2016  23 18  -15.5184 26103.5   3400.0   7.4211 26324.0
 01 10 2016  23 19  -15.5178 26104.4   3400.3   7.4214 26324.9
 01 10 2016  23 20  -15.5185 26105.0   3400.2   7.4211 26325.5
 01 10 2016  23 21  -15.5181 26105.7   3400.5   7.4215 26326.2
 01 10 2016  23 22  -15.5185 26106.3   3400.3   7.4210 26326.8
 01 10 2016  23 23  -15.5182 26107.0   3400.6   7.4215 26327.6
 01 10 2016  23 24  -15.5185 26107.3   3400.6   7.4214 26327.8
 01 10 2016  23 25  -15.5177 26107.9   3400.8   7.4215 26328.5
 01 10 2016  23 26  -15.5178 26108.5   3401.0   7.4217 26329.0
 01 10 2016  23 27  -15.5177 26109.2   3401.2   7.4220 26329.8
 01 10 2016  23 28  -15.5180 26109.3   3401.6   7.4229 26329.9
 01 10 2016  23 29  -15.5184 26109.7   3399.6   7.4184 26330.1
 01 10 2016  23 30  -15.5199 26109.2   3400.2   7.4199 26329.6
 01 10 2016  23 31  -15.5193 26109.5   3399.6   7.4186 26329.9
 01 10 2016  23 32  -15.5190 26110.5   3400.9   7.4211 26331.0
 01 10 2016  23 33  -15.5196 26110.7   3401.5   7.4222 26331.3
 01 10 2016  23 34  -15.5209 26110.6   3400.0   7.4190 26331.1
 01 10 2016  23 35  -15.5206 26110.8   3398.9   7.4167 26331.1
 01 10 2016  23 36  -15.5223 26110.2   3400.4   7.4201 26330.7
 01 10 2016  23 37  -15.5228 26110.5   3398.2   7.4152 26330.7
 01 10 2016  23 38  -15.5221 26110.6   3399.0   7.4170 26330.9
 01 10 2016  23 39  -15.5236 26110.1   3399.1   7.4173 26330.4
 01 10 2016  23 40  -15.5232 26109.6   3400.6   7.4205 26330.1
 01 10 2016  23 41  -15.5235 26109.3   3400.3   7.4200 26329.8
 01 10 2016  23 42  -15.5232 26109.5   3398.8   7.4168 26329.8
 01 10 2016  23 43  -15.5240 26109.2   3399.4   7.4182 26329.5
 01 10 2016  23 44  -15.5230 26109.5   3400.5   7.4205 26330.0
 01 10 2016  23 45  -15.5222 26110.4   3400.4   7.4199 26330.9
 01 10 2016  23 46  -15.5220 26111.2   3400.5   7.4200 26331.7
 01 10 2016  23 47  -15.5214 26111.6   3400.8   7.4205 26332.2
 01 10 2016  23 48  -15.5207 26112.1   3400.5   7.4197 26332.6
 01 10 2016  23 49  -15.5205 26112.5   3400.9   7.4205 26333.0
 01 10 2016  23 50  -15.5202 26112.7   3400.6   7.4196 26333.2
 01 10 2016  23 51  -15.5197 26112.7   3400.3   7.4191 26333.1
 01 10 2016  23 52  -15.5186 26112.7   3400.5   7.4195 26333.2
 01 10 2016  23 53  -15.5180 26113.0   3400.7   7.4198 26333.5
 01 10 2016  23 54  -15.5189 26113.1   3399.5   7.4172 26333.4
 01 10 2016  23 55  -15.5182 26112.8   3401.0   7.4205 26333.3
 01 10 2016  23 56  -15.5179 26112.8   3399.8   7.4179 26333.1
 01 10 2016  23 57  -15.5177 26112.6   3399.4   7.4172 26333.0
 01 10 2016  23 58  -15.5177 26112.4   3399.3   7.4171 26332.8
 01 10 2016  23 59  -15.5172 26112.5   3400.0   7.4185 26333.0
