Manaus - AM                    UNIVAP-03  <276> 1 Min. Reported data

 DD MM YYYY  HH MM   D(Deg)  H(nT)   Z(nT)   I(Deg)   F(nT)

 02 10 2016  00 00  -15.5185 26112.4   3400.0   7.4186 26332.8
 02 10 2016  00 01  -15.5174 26112.8   3399.9   7.4183 26333.2
 02 10 2016  00 02  -15.5174 26112.6   3400.0   7.4185 26333.0
 02 10 2016  00 03  -15.5194 26112.3   3398.1   7.4145 26332.5
 02 10 2016  00 04  -15.5175 26112.5   3399.2   7.4168 26332.8
 02 10 2016  00 05  -15.5186 26112.5   3398.8   7.4159 26332.8
 02 10 2016  00 06  -15.5192 26112.4   3398.3   7.4148 26332.6
 02 10 2016  00 07  -15.5189 26112.0   3399.7   7.4179 26332.3
 02 10 2016  00 08  -15.5189 26111.7   3400.0   7.4187 26332.1
 02 10 2016  00 09  -15.5201 26111.5   3397.9   7.4143 26331.7
 02 10 2016  00 10  -15.5197 26111.2   3399.5   7.4178 26331.6
 02 10 2016  00 11  -15.5199 26111.2   3399.3   7.4174 26331.5
 02 10 2016  00 12  -15.5200 26111.0   3399.8   7.4185 26331.4
 02 10 2016  00 13  -15.5205 26111.0   3398.9   7.4166 26331.3
 02 10 2016  00 14  -15.5210 26110.6   3399.0   7.4168 26330.9
 02 10 2016  00 15  -15.5218 26110.0   3398.8   7.4167 26330.2
 02 10 2016  00 16  -15.5212 26109.6   3398.7   7.4165 26329.9
 02 10 2016  00 17  -15.5215 26109.4   3397.6   7.4141 26329.6
 02 10 2016  00 18  -15.5221 26108.9   3398.2   7.4157 26329.1
 02 10 2016  00 19  -15.5224 26108.5   3397.9   7.4151 26328.7
 02 10 2016  00 20  -15.5204 26108.5   3399.4   7.4184 26328.8
 02 10 2016  00 21  -15.5218 26108.0   3398.2   7.4159 26328.2
 02 10 2016  00 22  -15.5223 26107.6   3397.6   7.4147 26327.7
 02 10 2016  00 23  -15.5218 26107.2   3399.0   7.4178 26327.5
 02 10 2016  00 24  -15.5225 26107.0   3397.6   7.4148 26327.2
 02 10 2016  00 25  -15.5235 26106.8   3398.2   7.4162 26327.0
 02 10 2016  00 26  -15.5221 26107.3   3398.9   7.4176 26327.6
 02 10 2016  00 27  -15.5219 26107.4   3398.9   7.4176 26327.7
 02 10 2016  00 28  -15.5224 26107.3   3398.8   7.4174 26327.6
 02 10 2016  00 29  -15.5221 26107.3   3398.4   7.4165 26327.5
 02 10 2016  00 30  -15.5216 26106.9   3399.8   7.4196 26327.3
 02 10 2016  00 31  -15.5224 26106.5   3399.1   7.4183 26326.8
 02 10 2016  00 32  -15.5224 26106.0   3399.8   7.4198 26326.4
 02 10 2016  00 33  -15.5225 26105.9   3398.2   7.4164 26326.1
 02 10 2016  00 34  -15.5222 26105.6   3398.5   7.4172 26325.9
 02 10 2016  00 35  -15.5229 26105.2   3399.6   7.4198 26325.6
 02 10 2016  00 36  -15.5231 26104.8   3399.9   7.4203 26325.3
 02 10 2016  00 37  -15.5235 26104.6   3398.8   7.4181 26324.9
 02 10 2016  00 38  -15.5246 26104.1   3398.2   7.4169 26324.4
 02 10 2016  00 39  -15.5241 26104.2   3398.2   7.4170 26324.4
 02 10 2016  00 40  -15.5239 26104.0   3398.6   7.4179 26324.3
 02 10 2016  00 41  -15.5243 26103.8   3398.6   7.4179 26324.1
 02 10 2016  00 42  -15.5246 26103.5   3398.9   7.4186 26323.9
 02 10 2016  00 43  -15.5245 26103.3   3399.1   7.4192 26323.7
 02 10 2016  00 44  -15.5240 26103.2   3399.0   7.4191 26323.6
 02 10 2016  00 45  -15.5244 26102.8   3398.8   7.4186 26323.2
 02 10 2016  00 46  -15.5243 26102.6   3398.8   7.4187 26322.9
 02 10 2016  00 47  -15.5243 26102.3   3398.6   7.4183 26322.7
 02 10 2016  00 48  -15.5243 26102.3   3398.8   7.4187 26322.6
 02 10 2016  00 49  -15.5242 26102.4   3398.9   7.4191 26322.7
 02 10 2016  00 50  -15.5241 26102.2   3399.6   7.4205 26322.6
 02 10 2016  00 51  -15.5235 26102.6   3398.6   7.4182 26322.9
 02 10 2016  00 52  -15.5234 26102.5   3399.3   7.4199 26322.9
 02 10 2016  00 53  -15.5231 26102.5   3399.8   7.4209 26323.0
 02 10 2016  00 54  -15.5233 26102.5   3399.7   7.4207 26322.9
 02 10 2016  00 55  -15.5233 26102.7   3398.9   7.4189 26323.1
 02 10 2016  00 56  -15.5234 26102.6   3399.9   7.4211 26323.1
 02 10 2016  00 57  -15.5232 26102.7   3399.0   7.4191 26323.1
 02 10 2016  00 58  -15.5232 26102.4   3399.9   7.4212 26322.9
 02 10 2016  00 59  -15.5227 26102.4   3399.6   7.4206 26322.8
 02 10 2016  01 00  -15.5230 26102.0   3399.9   7.4213 26322.5
 02 10 2016  01 01  -15.5220 26102.2   3399.7   7.4207 26322.7
 02 10 2016  01 02  -15.5219 26102.1   3400.3   7.4221 26322.7
 02 10 2016  01 03  -15.5223 26102.3   3399.3   7.4199 26322.7
 02 10 2016  01 04  -15.5223 26102.3   3399.9   7.4212 26322.8
 02 10 2016  01 05  -15.5213 26102.7   3399.4   7.4200 26323.1
 02 10 2016  01 06  -15.5214 26102.3   3401.5   7.4246 26323.0
 02 10 2016  01 07  -15.5224 26102.3   3400.2   7.4219 26322.8
 02 10 2016  01 08  -15.5207 26102.6   3401.9   7.4253 26323.4
 02 10 2016  01 09  -15.5210 26103.1   3400.1   7.4213 26323.6
 02 10 2016  01 10  -15.5209 26103.1   3401.0   7.4234 26323.7
 02 10 2016  01 11  -15.5213 26103.3   3400.0   7.4212 26323.8
 02 10 2016  01 12  -15.5209 26103.5   3400.9   7.4230 26324.1
 02 10 2016  01 13  -15.5212 26103.9   3400.9   7.4230 26324.5
 02 10 2016  01 14  -15.5207 26104.7   3401.1   7.4232 26325.3
 02 10 2016  01 15  -15.5211 26105.1   3401.3   7.4235 26325.8
 02 10 2016  01 16  -15.5200 26105.9   3401.7   7.4240 26326.6
 02 10 2016  01 17  -15.5200 26106.3   3401.7   7.4239 26327.0
 02 10 2016  01 18  -15.5199 26106.6   3401.6   7.4236 26327.3
 02 10 2016  01 19  -15.5197 26106.6   3401.7   7.4238 26327.3
 02 10 2016  01 20  -15.5197 26106.6   3401.4   7.4231 26327.3
 02 10 2016  01 21  -15.5194 26106.5   3401.5   7.4234 26327.2
 02 10 2016  01 22  -15.5191 26106.5   3401.5   7.4234 26327.2
 02 10 2016  01 23  -15.5188 26106.6   3401.2   7.4227 26327.2
 02 10 2016  01 24  -15.5183 26106.7   3401.3   7.4230 26327.3
 02 10 2016  01 25  -15.5186 26106.6   3400.9   7.4222 26327.2
 02 10 2016  01 26  -15.5177 26106.4   3401.8   7.4241 26327.1
 02 10 2016  01 27  -15.5182 26106.1   3400.5   7.4214 26326.6
 02 10 2016  01 28  -15.5177 26105.9   3400.5   7.4215 26326.5
 02 10 2016  01 29  -15.5176 26105.8   3401.1   7.4227 26326.5
 02 10 2016  01 30  -15.5168 26106.1   3400.7   7.4219 26326.6
 02 10 2016  01 31  -15.5166 26106.2   3401.5   7.4235 26326.8
 02 10 2016  01 32  -15.5168 26106.5   3400.7   7.4218 26327.1
 02 10 2016  01 33  -15.5164 26106.7   3401.2   7.4227 26327.3
 02 10 2016  01 34  -15.5162 26106.8   3401.2   7.4227 26327.4
 02 10 2016  01 35  -15.5166 26106.8   3400.9   7.4222 26327.4
 02 10 2016  01 36  -15.5174 26106.7   3400.3   7.4208 26327.2
 02 10 2016  01 37  -15.5173 26106.5   3400.8   7.4218 26327.1
 02 10 2016  01 38  -15.5172 26106.7   3400.8   7.4218 26327.3
 02 10 2016  01 39  -15.5188 26106.1   3401.0   7.4225 26326.7
 02 10 2016  01 40  -15.5201 26105.9   3400.7   7.4218 26326.5
 02 10 2016  01 41  -15.5205 26106.1   3399.7   7.4198 26326.5
 02 10 2016  01 42  -15.5216 26105.8   3400.6   7.4216 26326.4
 02 10 2016  01 43  -15.5202 26106.1   3401.6   7.4237 26326.8
 02 10 2016  01 44  -15.5214 26105.7   3401.7   7.4240 26326.4
 02 10 2016  01 45  -15.5211 26105.5   3401.5   7.4238 26326.2
 02 10 2016  01 46  -15.5217 26105.4   3399.5   7.4194 26325.8
 02 10 2016  01 47  -15.5222 26105.1   3398.7   7.4179 26325.4
 02 10 2016  01 48  -15.5224 26104.6   3399.1   7.4188 26325.0
 02 10 2016  01 49  -15.5226 26103.9   3401.1   7.4233 26324.6
 02 10 2016  01 50  -15.5238 26103.1   3400.8   7.4229 26323.7
 02 10 2016  01 51  -15.5247 26102.4   3399.4   7.4200 26322.8
 02 10 2016  01 52  -15.5247 26101.8   3398.4   7.4181 26322.1
 02 10 2016  01 53  -15.5253 26100.7   3399.1   7.4200 26321.1
 02 10 2016  01 54  -15.5243 26100.2   3400.4   7.4228 26320.8
 02 10 2016  01 55  -15.5247 26099.9   3398.9   7.4198 26320.3
 02 10 2016  01 56  -15.5239 26100.1   3399.7   7.4213 26320.6
 02 10 2016  01 57  -15.5233 26100.5   3399.6   7.4211 26321.0
 02 10 2016  01 58  -15.5235 26100.7   3401.0   7.4241 26321.4
 02 10 2016  01 59  -15.5235 26101.4   3401.1   7.4240 26322.0
 02 10 2016  02 00  -15.5215 26102.1   3402.1   7.4260 26322.9
 02 10 2016  02 01  -15.5228 26102.5   3400.7   7.4227 26323.1
 02 10 2016  02 02  -15.5220 26102.6   3401.7   7.4250 26323.3
 02 10 2016  02 03  -15.5228 26102.5   3401.7   7.4250 26323.2
 02 10 2016  02 04  -15.5228 26102.4   3401.6   7.4247 26323.1
 02 10 2016  02 05  -15.5235 26102.5   3400.7   7.4229 26323.0
 02 10 2016  02 06  -15.5236 26102.1   3400.7   7.4229 26322.7
 02 10 2016  02 07  -15.5238 26102.2   3400.3   7.4221 26322.7
 02 10 2016  02 08  -15.5239 26102.2   3400.5   7.4225 26322.8
 02 10 2016  02 09  -15.5249 26101.7   3400.2   7.4220 26322.2
 02 10 2016  02 10  -15.5247 26101.4   3400.3   7.4222 26322.0
 02 10 2016  02 11  -15.5251 26101.2   3400.3   7.4223 26321.8
 02 10 2016  02 12  -15.5255 26101.0   3400.3   7.4223 26321.5
 02 10 2016  02 13  -15.5250 26101.4   3400.6   7.4230 26322.0
 02 10 2016  02 14  -15.5255 26100.8   3400.3   7.4225 26321.4
 02 10 2016  02 15  -15.5255 26100.8   3400.5   7.4228 26321.4
 02 10 2016  02 16  -15.5258 26100.5   3400.4   7.4228 26321.1
 02 10 2016  02 17  -15.5261 26100.2   3399.6   7.4211 26320.6
 02 10 2016  02 18  -15.5256 26100.2   3400.4   7.4228 26320.8
 02 10 2016  02 19  -15.5264 26100.2   3400.1   7.4221 26320.8
 02 10 2016  02 20  -15.5262 26100.5   3400.2   7.4224 26321.1
 02 10 2016  02 21  -15.5278 26100.5   3400.0   7.4220 26321.0
 02 10 2016  02 22  -15.5260 26100.8   3402.2   7.4264 26321.6
 02 10 2016  02 23  -15.5259 26101.0   3401.9   7.4259 26321.8
 02 10 2016  02 24  -15.5267 26101.0   3401.3   7.4245 26321.7
 02 10 2016  02 25  -15.5268 26101.0   3400.5   7.4227 26321.6
 02 10 2016  02 26  -15.5273 26100.7   3401.2   7.4244 26321.4
 02 10 2016  02 27  -15.5267 26101.0   3401.0   7.4238 26321.7
 02 10 2016  02 28  -15.5268 26100.7   3401.0   7.4239 26321.3
 02 10 2016  02 29  -15.5267 26100.4   3400.9   7.4238 26321.1
 02 10 2016  02 30  -15.5260 26100.3   3400.9   7.4239 26320.9
 02 10 2016  02 31  -15.5255 26100.1   3400.7   7.4235 26320.7
 02 10 2016  02 32  -15.5250 26099.7   3400.9   7.4240 26320.4
 02 10 2016  02 33  -15.5247 26099.4   3400.9   7.4241 26320.1
 02 10 2016  02 34  -15.5243 26099.3   3400.8   7.4240 26319.9
 02 10 2016  02 35  -15.5241 26099.3   3400.7   7.4237 26319.9
 02 10 2016  02 36  -15.5240 26099.2   3401.0   7.4244 26319.9
 02 10 2016  02 37  -15.5237 26099.1   3401.7   7.4259 26319.9
 02 10 2016  02 38  -15.5232 26099.5   3400.6   7.4234 26320.1
 02 10 2016  02 39  -15.5238 26099.6   3400.5   7.4232 26320.2
 02 10 2016  02 40  -15.5248 26099.5   3400.8   7.4239 26320.1
 02 10 2016  02 41  -15.5229 26099.9   3401.7   7.4258 26320.6
 02 10 2016  02 42  -15.5231 26099.9   3401.9   7.4262 26320.6
 02 10 2016  02 43  -15.5232 26100.2   3401.9   7.4261 26321.0
 02 10 2016  02 44  -15.5239 26100.6   3402.8   7.4280 26321.5
 02 10 2016  02 45  -15.5232 26101.1   3402.1   7.4263 26321.9
 02 10 2016  02 46  -15.5220 26101.5   3404.1   7.4304 26322.5
 02 10 2016  02 47  -15.5230 26102.1   3401.9   7.4255 26322.8
 02 10 2016  02 48  -15.5220 26102.9   3402.5   7.4266 26323.7
 02 10 2016  02 49  -15.5235 26103.0   3402.4   7.4264 26323.8
 02 10 2016  02 50  -15.5222 26103.7   3402.1   7.4256 26324.5
 02 10 2016  02 51  -15.5228 26103.8   3402.8   7.4270 26324.7
 02 10 2016  02 52  -15.5217 26104.3   3403.7   7.4287 26325.2
 02 10 2016  02 53  -15.5227 26105.1   3401.9   7.4247 26325.8
 02 10 2016  02 54  -15.5209 26105.9   3403.7   7.4283 26326.8
 02 10 2016  02 55  -15.5206 26107.0   3404.4   7.4295 26328.0
 02 10 2016  02 56  -15.5206 26108.1   3404.1   7.4286 26329.1
 02 10 2016  02 57  -15.5193 26109.3   3405.2   7.4306 26330.4
 02 10 2016  02 58  -15.5207 26110.0   3405.1   7.4302 26331.1
 02 10 2016  02 59  -15.5208 26110.5   3405.2   7.4303 26331.6
 02 10 2016  03 00  -15.5203 26111.9   3403.2   7.4255 26332.8
 02 10 2016  03 01  -15.5191 26112.2   3404.3   7.4280 26333.2
 02 10 2016  03 02  -15.5186 26112.6   3403.9   7.4268 26333.5
 02 10 2016  03 03  -15.5189 26112.9   3404.1   7.4272 26333.9
 02 10 2016  03 04  -15.5195 26113.3   3402.9   7.4246 26334.1
 02 10 2016  03 05  -15.5190 26113.7   3404.1   7.4270 26334.7
 02 10 2016  03 06  -15.5202 26114.1   3403.2   7.4249 26334.9
 02 10 2016  03 07  -15.5205 26114.4   3402.1   7.4226 26335.1
 02 10 2016  03 08  -15.5186 26115.3   3403.8   7.4259 26336.2
 02 10 2016  03 09  -15.5198 26115.8   3403.6   7.4254 26336.7
 02 10 2016  03 10  -15.5194 26116.6   3403.1   7.4240 26337.4
 02 10 2016  03 11  -15.5193 26116.6   3403.1   7.4241 26337.4
 02 10 2016  03 12  -15.5196 26116.0   3402.7   7.4233 26336.8
 02 10 2016  03 13  -15.5197 26116.1   3402.4   7.4227 26336.8
 02 10 2016  03 14  -15.5192 26116.4   3402.7   7.4233 26337.2
 02 10 2016  03 15  -15.5188 26117.0   3402.8   7.4234 26337.7
 02 10 2016  03 16  -15.5186 26117.4   3403.1   7.4238 26338.2
 02 10 2016  03 17  -15.5191 26117.9   3402.4   7.4222 26338.5
 02 10 2016  03 18  -15.5193 26118.1   3403.1   7.4237 26338.9
 02 10 2016  03 19  -15.5197 26118.4   3402.5   7.4222 26339.1
 02 10 2016  03 20  -15.5198 26118.2   3402.3   7.4218 26338.8
 02 10 2016  03 21  -15.5203 26118.0   3402.0   7.4213 26338.6
 02 10 2016  03 22  -15.5209 26117.8   3402.8   7.4231 26338.5
 02 10 2016  03 23  -15.5208 26118.2   3402.4   7.4220 26338.8
 02 10 2016  03 24  -15.5211 26118.3   3401.8   7.4208 26338.9
 02 10 2016  03 25  -15.5203 26118.4   3402.5   7.4222 26339.1
 02 10 2016  03 26  -15.5212 26117.8   3402.1   7.4215 26338.5
 02 10 2016  03 27  -15.5223 26117.4   3401.4   7.4201 26338.0
 02 10 2016  03 28  -15.5207 26117.1   3403.1   7.4238 26337.9
 02 10 2016  03 29  -15.5217 26117.0   3401.3   7.4200 26337.5
 02 10 2016  03 30  -15.5214 26116.8   3401.7   7.4210 26337.4
 02 10 2016  03 31  -15.5217 26116.3   3401.6   7.4208 26336.9
 02 10 2016  03 32  -15.5218 26116.1   3400.1   7.4177 26336.5
 02 10 2016  03 33  -15.5214 26115.5   3401.4   7.4207 26336.1
 02 10 2016  03 34  -15.5207 26115.1   3401.5   7.4211 26335.7
 02 10 2016  03 35  -15.5223 26114.7   3401.4   7.4209 26335.3
 02 10 2016  03 36  -15.5214 26115.0   3401.9   7.4219 26335.6
 02 10 2016  03 37  -15.5224 26115.0   3401.1   7.4203 26335.5
 02 10 2016  03 38  -15.5237 26115.0   3401.9   7.4219 26335.7
 02 10 2016  03 39  -15.5239 26115.6   3401.1   7.4200 26336.1
 02 10 2016  03 40  -15.5241 26115.4   3402.5   7.4230 26336.2
 02 10 2016  03 41  -15.5259 26114.6   3399.5   7.4169 26335.0
 02 10 2016  03 42  -15.5258 26114.2   3399.4   7.4168 26334.5
 02 10 2016  03 43  -15.5256 26113.2   3401.0   7.4206 26333.8
 02 10 2016  03 44  -15.5251 26112.7   3400.3   7.4192 26333.2
 02 10 2016  03 45  -15.5244 26112.8   3400.9   7.4203 26333.3
 02 10 2016  03 46  -15.5252 26113.2   3400.1   7.4185 26333.6
 02 10 2016  03 47  -15.5253 26113.7   3399.6   7.4172 26334.1
 02 10 2016  03 48  -15.5265 26113.3   3401.1   7.4207 26333.9
 02 10 2016  03 49  -15.5257 26114.2   3400.7   7.4194 26334.7
 02 10 2016  03 50  -15.5245 26114.5   3401.2   7.4204 26335.0
 02 10 2016  03 51  -15.5252 26113.9   3402.7   7.4238 26334.7
 02 10 2016  03 52  -15.5250 26114.3   3401.3   7.4208 26334.9
 02 10 2016  03 53  -15.5242 26114.3   3402.0   7.4223 26334.9
 02 10 2016  03 54  -15.5237 26114.2   3400.8   7.4199 26334.7
 02 10 2016  03 55  -15.5227 26114.0   3401.9   7.4221 26334.7
 02 10 2016  03 56  -15.5217 26114.1   3400.9   7.4201 26334.7
 02 10 2016  03 57  -15.5222 26114.0   3399.7   7.4173 26334.4
 02 10 2016  03 58  -15.5220 26113.8   3400.8   7.4199 26334.3
 02 10 2016  03 59  -15.5217 26113.9   3400.8   7.4198 26334.4
 02 10 2016  04 00  -15.5210 26114.6   3399.7   7.4172 26334.9
 02 10 2016  04 01  -15.5219 26114.5   3400.9   7.4199 26335.0
 02 10 2016  04 02  -15.5198 26114.8   3402.6   7.4235 26335.5
 02 10 2016  04 03  -15.5204 26114.6   3401.0   7.4201 26335.1
 02 10 2016  04 04  -15.5197 26114.4   3400.4   7.4189 26334.8
 02 10 2016  04 05  -15.5193 26113.8   3400.1   7.4184 26334.2
 02 10 2016  04 06  -15.5194 26113.4   3399.9   7.4181 26333.8
 02 10 2016  04 07  -15.5206 26112.8   3399.4   7.4171 26333.2
 02 10 2016  04 08  -15.5203 26113.0   3399.5   7.4172 26333.4
 02 10 2016  04 09  -15.5207 26112.9   3400.0   7.4184 26333.3
 02 10 2016  04 10  -15.5211 26112.8   3399.6   7.4175 26333.2
 02 10 2016  04 11  -15.5215 26112.7   3399.4   7.4171 26333.0
 02 10 2016  04 12  -15.5213 26112.7   3400.0   7.4183 26333.1
 02 10 2016  04 13  -15.5219 26113.1   3399.3   7.4169 26333.4
 02 10 2016  04 14  -15.5217 26113.7   3400.2   7.4185 26334.1
 02 10 2016  04 15  -15.5219 26114.3   3400.1   7.4183 26334.7
 02 10 2016  04 16  -15.5218 26114.8   3400.6   7.4191 26335.3
 02 10 2016  04 17  -15.5223 26115.0   3400.4   7.4187 26335.5
 02 10 2016  04 18  -15.5223 26114.9   3400.0   7.4178 26335.3
 02 10 2016  04 19  -15.5221 26115.0   3399.9   7.4176 26335.4
 02 10 2016  04 20  -15.5221 26115.1   3400.5   7.4188 26335.6
 02 10 2016  04 21  -15.5224 26115.2   3399.7   7.4170 26335.6
 02 10 2016  04 22  -15.5234 26114.9   3398.3   7.4143 26335.1
 02 10 2016  04 23  -15.5225 26114.8   3400.4   7.4187 26335.3
 02 10 2016  04 24  -15.5215 26115.1   3400.7   7.4194 26335.6
 02 10 2016  04 25  -15.5235 26114.8   3400.0   7.4178 26335.2
 02 10 2016  04 26  -15.5223 26114.8   3400.4   7.4186 26335.2
 02 10 2016  04 27  -15.5225 26114.8   3398.9   7.4154 26335.0
 02 10 2016  04 28  -15.5232 26114.5   3399.2   7.4161 26334.8
 02 10 2016  04 29  -15.5261 26114.2   3397.5   7.4126 26334.3
 02 10 2016  04 30  -15.5259 26114.1   3399.3   7.4166 26334.4
 02 10 2016  04 31  -15.5264 26114.3   3398.5   7.4148 26334.5
 02 10 2016  04 32  -15.5263 26114.2   3398.6   7.4150 26334.5
 02 10 2016  04 33  -15.5265 26113.7   3398.0   7.4139 26333.8
 02 10 2016  04 34  -15.5274 26112.3   3398.0   7.4142 26332.5
 02 10 2016  04 35  -15.5273 26111.4   3398.2   7.4149 26331.6
 02 10 2016  04 36  -15.5282 26111.3   3396.5   7.4113 26331.3
 02 10 2016  04 37  -15.5271 26111.6   3398.4   7.4152 26331.8
 02 10 2016  04 38  -15.5277 26111.5   3397.0   7.4124 26331.5
 02 10 2016  04 39  -15.5261 26111.4   3397.3   7.4130 26331.4
 02 10 2016  04 40  -15.5268 26110.8   3398.0   7.4147 26331.0
 02 10 2016  04 41  -15.5247 26111.0   3398.0   7.4145 26331.1
 02 10 2016  04 42  -15.5241 26111.0   3399.0   7.4167 26331.3
 02 10 2016  04 43  -15.5248 26111.0   3399.1   7.4170 26331.3
 02 10 2016  04 44  -15.5244 26111.3   3399.4   7.4176 26331.7
 02 10 2016  04 45  -15.5240 26111.6   3399.2   7.4171 26331.9
 02 10 2016  04 46  -15.5234 26111.6   3399.1   7.4167 26331.9
 02 10 2016  04 47  -15.5241 26111.1   3398.0   7.4147 26331.2
 02 10 2016  04 48  -15.5246 26110.4   3398.5   7.4159 26330.7
 02 10 2016  04 49  -15.5256 26110.0   3398.3   7.4156 26330.2
 02 10 2016  04 50  -15.5253 26110.3   3397.0   7.4127 26330.4
 02 10 2016  04 51  -15.5253 26110.1   3398.7   7.4164 26330.4
 02 10 2016  04 52  -15.5267 26109.9   3399.8   7.4189 26330.3
 02 10 2016  04 53  -15.5269 26110.2   3400.3   7.4198 26330.7
 02 10 2016  04 54  -15.5272 26110.9   3398.7   7.4161 26331.2
 02 10 2016  04 55  -15.5258 26111.9   3399.6   7.4178 26332.2
 02 10 2016  04 56  -15.5260 26112.3   3400.6   7.4199 26332.8
 02 10 2016  04 57  -15.5263 26112.9   3399.5   7.4173 26333.2
 02 10 2016  04 58  -15.5265 26113.0   3399.5   7.4174 26333.3
 02 10 2016  04 59  -15.5284 26112.4   3399.2   7.4168 26332.7
 02 10 2016  05 00  -15.5280 26112.1   3400.4   7.4194 26332.5
 02 10 2016  05 01  -15.5278 26112.2   3398.2   7.4147 26332.3
 02 10 2016  05 02  -15.5289 26111.4   3398.1   7.4147 26331.6
 02 10 2016  05 03  -15.5289 26110.7   3399.6   7.4182 26331.0
 02 10 2016  05 04  -15.5284 26110.4   3400.7   7.4206 26330.9
 02 10 2016  05 05  -15.5274 26110.5   3400.7   7.4205 26331.0
 02 10 2016  05 06  -15.5279 26110.1   3399.9   7.4191 26330.5
 02 10 2016  05 07  -15.5295 26109.4   3399.3   7.4178 26329.8
 02 10 2016  05 08  -15.5304 26109.1   3399.6   7.4186 26329.5
 02 10 2016  05 09  -15.5304 26109.2   3399.7   7.4188 26329.7
 02 10 2016  05 10  -15.5311 26109.4   3398.8   7.4168 26329.7
 02 10 2016  05 11  -15.5314 26109.4   3399.7   7.4187 26329.8
 02 10 2016  05 12  -15.5319 26109.4   3400.3   7.4200 26329.9
 02 10 2016  05 13  -15.5307 26109.7   3399.9   7.4191 26330.1
 02 10 2016  05 14  -15.5309 26109.3   3399.8   7.4189 26329.7
 02 10 2016  05 15  -15.5306 26108.7   3400.5   7.4207 26329.2
 02 10 2016  05 16  -15.5318 26108.2   3399.8   7.4193 26328.6
 02 10 2016  05 17  -15.5319 26107.9   3399.7   7.4192 26328.3
 02 10 2016  05 18  -15.5323 26107.2   3399.9   7.4198 26327.7
 02 10 2016  05 19  -15.5321 26106.6   3399.7   7.4194 26327.1
 02 10 2016  05 20  -15.5319 26106.2   3400.2   7.4207 26326.7
 02 10 2016  05 21  -15.5323 26106.2   3399.7   7.4196 26326.6
 02 10 2016  05 22  -15.5316 26106.3   3400.3   7.4209 26326.8
 02 10 2016  05 23  -15.5322 26106.0   3401.2   7.4230 26326.6
 02 10 2016  05 24  -15.5310 26106.7   3401.1   7.4226 26327.3
 02 10 2016  05 25  -15.5303 26107.1   3401.9   7.4240 26327.8
 02 10 2016  05 26  -15.5314 26107.3   3400.7   7.4215 26327.8
 02 10 2016  05 27  -15.5316 26107.3   3401.6   7.4234 26327.9
 02 10 2016  05 28  -15.5313 26107.5   3400.8   7.4217 26328.1
 02 10 2016  05 29  -15.5319 26107.2   3401.6   7.4234 26327.9
 02 10 2016  05 30  -15.5325 26107.3   3401.4   7.4231 26328.0
 02 10 2016  05 31  -15.5318 26107.5   3401.9   7.4240 26328.2
 02 10 2016  05 32  -15.5324 26107.3   3401.7   7.4237 26328.0
 02 10 2016  05 33  -15.5324 26107.5   3401.0   7.4221 26328.1
 02 10 2016  05 34  -15.5334 26107.2   3401.4   7.4230 26327.8
 02 10 2016  05 35  -15.5332 26107.5   3401.3   7.4227 26328.1
 02 10 2016  05 36  -15.5337 26107.6   3400.7   7.4214 26328.2
 02 10 2016  05 37  -15.5337 26107.5   3401.6   7.4233 26328.2
 02 10 2016  05 38  -15.5333 26107.7   3401.7   7.4235 26328.4
 02 10 2016  05 39  -15.5341 26107.5   3401.4   7.4230 26328.1
 02 10 2016  05 40  -15.5342 26107.3   3400.9   7.4218 26327.9
 02 10 2016  05 41  -15.5337 26107.0   3401.2   7.4226 26327.7
 02 10 2016  05 42  -15.5334 26106.7   3400.9   7.4221 26327.3
 02 10 2016  05 43  -15.5332 26106.4   3400.8   7.4219 26327.0
 02 10 2016  05 44  -15.5320 26106.4   3401.1   7.4226 26327.0
 02 10 2016  05 45  -15.5319 26106.1   3401.5   7.4236 26326.8
 02 10 2016  05 46  -15.5315 26106.3   3400.8   7.4221 26326.8
 02 10 2016  05 47  -15.5306 26106.4   3401.5   7.4235 26327.1
 02 10 2016  05 48  -15.5313 26106.3   3401.2   7.4229 26326.9
 02 10 2016  05 49  -15.5311 26106.4   3401.1   7.4226 26327.1
 02 10 2016  05 50  -15.5303 26106.6   3401.4   7.4231 26327.2
 02 10 2016  05 51  -15.5309 26106.7   3400.5   7.4213 26327.2
 02 10 2016  05 52  -15.5309 26106.4   3400.6   7.4214 26327.0
 02 10 2016  05 53  -15.5279 26106.9   3401.7   7.4238 26327.6
 02 10 2016  05 54  -15.5280 26106.4   3403.1   7.4269 26327.2
 02 10 2016  05 55  -15.5272 26106.4   3402.6   7.4257 26327.2
 02 10 2016  05 56  -15.5257 26106.7   3401.2   7.4228 26327.4
 02 10 2016  05 57  -15.5266 26106.5   3401.4   7.4233 26327.2
 02 10 2016  05 58  -15.5269 26106.6   3400.6   7.4214 26327.2
 02 10 2016  05 59  -15.5254 26107.1   3400.5   7.4211 26327.6
 02 10 2016  06 00  -15.5257 26106.9   3401.5   7.4234 26327.6
 02 10 2016  06 01  -15.5245 26107.1   3403.1   7.4268 26328.0
 02 10 2016  06 02  -15.5250 26107.4   3400.7   7.4215 26327.9
 02 10 2016  06 03  -15.5234 26107.7   3402.1   7.4243 26328.4
 02 10 2016  06 04  -15.5235 26107.6   3403.5   7.4275 26328.5
 02 10 2016  06 05  -15.5235 26107.6   3403.5   7.4273 26328.5
 02 10 2016  06 06  -15.5242 26107.7   3402.6   7.4254 26328.5
 02 10 2016  06 07  -15.5231 26108.4   3401.2   7.4223 26329.0
 02 10 2016  06 08  -15.5246 26108.3   3400.7   7.4212 26328.8
 02 10 2016  06 09  -15.5243 26108.2   3401.8   7.4235 26328.9
 02 10 2016  06 10  -15.5246 26108.3   3400.7   7.4213 26328.8
 02 10 2016  06 11  -15.5236 26108.4   3401.9   7.4237 26329.1
 02 10 2016  06 12  -15.5235 26108.6   3401.5   7.4227 26329.3
 02 10 2016  06 13  -15.5228 26108.8   3402.5   7.4250 26329.6
 02 10 2016  06 14  -15.5234 26108.9   3402.4   7.4246 26329.7
 02 10 2016  06 15  -15.5235 26109.2   3402.2   7.4243 26330.0
 02 10 2016  06 16  -15.5235 26109.7   3402.3   7.4242 26330.4
 02 10 2016  06 17  -15.5237 26110.0   3402.5   7.4246 26330.7
 02 10 2016  06 18  -15.5239 26110.3   3402.2   7.4239 26331.0
 02 10 2016  06 19  -15.5239 26110.5   3402.6   7.4247 26331.3
 02 10 2016  06 20  -15.5242 26110.9   3402.4   7.4241 26331.6
 02 10 2016  06 21  -15.5246 26110.8   3402.6   7.4245 26331.6
 02 10 2016  06 22  -15.5256 26110.6   3402.5   7.4245 26331.4
 02 10 2016  06 23  -15.5256 26110.9   3401.9   7.4231 26331.6
 02 10 2016  06 24  -15.5267 26110.8   3402.5   7.4245 26331.5
 02 10 2016  06 25  -15.5251 26111.8   3402.0   7.4231 26332.4
 02 10 2016  06 26  -15.5239 26112.6   3403.5   7.4259 26333.4
 02 10 2016  06 27  -15.5251 26112.6   3402.2   7.4231 26333.3
 02 10 2016  06 28  -15.5252 26112.8   3401.3   7.4213 26333.3
 02 10 2016  06 29  -15.5245 26112.7   3403.3   7.4255 26333.6
 02 10 2016  06 30  -15.5244 26113.0   3402.8   7.4243 26333.8
 02 10 2016  06 31  -15.5246 26113.2   3402.2   7.4230 26333.9
 02 10 2016  06 32  -15.5243 26113.1   3403.1   7.4250 26334.0
 02 10 2016  06 33  -15.5242 26113.2   3403.0   7.4248 26334.0
 02 10 2016  06 34  -15.5240 26113.3   3403.4   7.4255 26334.2
 02 10 2016  06 35  -15.5226 26113.9   3403.1   7.4247 26334.7
 02 10 2016  06 36  -15.5244 26113.9   3401.6   7.4215 26334.5
 02 10 2016  06 37  -15.5252 26113.8   3401.5   7.4214 26334.4
 02 10 2016  06 38  -15.5241 26114.2   3402.3   7.4231 26334.9
 02 10 2016  06 39  -15.5231 26114.5   3402.7   7.4237 26335.3
 02 10 2016  06 40  -15.5232 26114.8   3402.1   7.4223 26335.4
 02 10 2016  06 41  -15.5232 26115.1   3402.9   7.4240 26335.8
 02 10 2016  06 42  -15.5229 26115.3   3402.9   7.4239 26336.1
 02 10 2016  06 43  -15.5225 26115.6   3403.4   7.4250 26336.4
 02 10 2016  06 44  -15.5221 26116.2   3402.6   7.4231 26336.9
 02 10 2016  06 45  -15.5222 26116.4   3402.5   7.4227 26337.1
 02 10 2016  06 46  -15.5216 26116.9   3402.9   7.4235 26337.7
 02 10 2016  06 47  -15.5212 26117.0   3403.1   7.4240 26337.8
 02 10 2016  06 48  -15.5213 26117.1   3402.5   7.4226 26337.8
 02 10 2016  06 49  -15.5208 26117.1   3403.0   7.4237 26337.8
 02 10 2016  06 50  -15.5206 26117.2   3402.7   7.4230 26337.9
 02 10 2016  06 51  -15.5196 26117.5   3401.8   7.4210 26338.1
 02 10 2016  06 52  -15.5195 26117.0   3402.9   7.4235 26337.8
 02 10 2016  06 53  -15.5195 26116.5   3403.3   7.4245 26337.3
 02 10 2016  06 54  -15.5185 26116.5   3402.5   7.4229 26337.2
 02 10 2016  06 55  -15.5186 26116.2   3402.4   7.4226 26336.9
 02 10 2016  06 56  -15.5180 26116.4   3400.3   7.4181 26336.8
 02 10 2016  06 57  -15.5176 26115.7   3402.6   7.4233 26336.4
 02 10 2016  06 58  -15.5164 26115.8   3402.8   7.4236 26336.6
 02 10 2016  06 59  -15.5179 26115.7   3401.7   7.4212 26336.3
 02 10 2016  07 00  -15.5161 26116.2   3401.2   7.4202 26336.7
 02 10 2016  07 01  -15.5159 26116.0   3401.8   7.4215 26336.6
 02 10 2016  07 02  -15.5149 26116.4   3402.6   7.4230 26337.1
 02 10 2016  07 03  -15.5154 26116.4   3403.1   7.4241 26337.2
 02 10 2016  07 04  -15.5161 26116.7   3401.2   7.4200 26337.2
 02 10 2016  07 05  -15.5147 26117.0   3401.3   7.4200 26337.6
 02 10 2016  07 06  -15.5153 26116.7   3401.9   7.4213 26337.4
 02 10 2016  07 07  -15.5152 26116.7   3401.2   7.4199 26337.3
 02 10 2016  07 08  -15.5156 26116.4   3401.7   7.4210 26337.0
 02 10 2016  07 09  -15.5155 26116.3   3401.9   7.4214 26336.9
 02 10 2016  07 10  -15.5158 26116.7   3400.8   7.4190 26337.2
 02 10 2016  07 11  -15.5164 26116.6   3401.0   7.4195 26337.1
 02 10 2016  07 12  -15.5160 26116.5   3400.9   7.4194 26337.0
 02 10 2016  07 13  -15.5163 26116.4   3400.9   7.4193 26336.9
 02 10 2016  07 14  -15.5162 26116.5   3401.0   7.4196 26337.0
 02 10 2016  07 15  -15.5156 26116.4   3401.8   7.4213 26337.0
 02 10 2016  07 16  -15.5146 26116.6   3402.0   7.4216 26337.3
 02 10 2016  07 17  -15.5164 26116.1   3402.1   7.4220 26336.8
 02 10 2016  07 18  -15.5157 26116.5   3401.3   7.4203 26337.0
 02 10 2016  07 19  -15.5161 26116.5   3400.9   7.4192 26337.0
 02 10 2016  07 20  -15.5150 26116.8   3401.4   7.4203 26337.3
 02 10 2016  07 21  -15.5151 26116.9   3402.9   7.4236 26337.7
 02 10 2016  07 22  -15.5155 26116.9   3402.9   7.4236 26337.7
 02 10 2016  07 23  -15.5146 26117.3   3402.4   7.4223 26338.0
 02 10 2016  07 24  -15.5149 26117.1   3402.5   7.4225 26337.8
 02 10 2016  07 25  -15.5148 26117.1   3402.6   7.4227 26337.8
 02 10 2016  07 26  -15.5147 26117.2   3401.7   7.4208 26337.8
 02 10 2016  07 27  -15.5150 26117.3   3400.6   7.4184 26337.8
 02 10 2016  07 28  -15.5155 26117.0   3402.4   7.4225 26337.7
 02 10 2016  07 29  -15.5148 26117.9   3401.2   7.4195 26338.5
 02 10 2016  07 30  -15.5155 26117.8   3402.7   7.4229 26338.5
 02 10 2016  07 31  -15.5157 26117.9   3401.5   7.4203 26338.5
 02 10 2016  07 32  -15.5164 26117.6   3401.2   7.4197 26338.2
 02 10 2016  07 33  -15.5167 26117.4   3401.9   7.4212 26338.0
 02 10 2016  07 34  -15.5165 26117.8   3401.3   7.4198 26338.4
 02 10 2016  07 35  -15.5170 26117.7   3401.8   7.4210 26338.3
 02 10 2016  07 36  -15.5190 26117.1   3401.2   7.4199 26337.6
 02 10 2016  07 37  -15.5188 26117.3   3401.0   7.4193 26337.9
 02 10 2016  07 38  -15.5202 26117.3   3400.8   7.4188 26337.8
 02 10 2016  07 39  -15.5200 26117.1   3402.3   7.4222 26337.8
 02 10 2016  07 40  -15.5204 26117.2   3400.6   7.4185 26337.6
 02 10 2016  07 41  -15.5199 26117.0   3401.8   7.4211 26337.6
 02 10 2016  07 42  -15.5197 26117.0   3401.9   7.4214 26337.6
 02 10 2016  07 43  -15.5200 26116.8   3402.0   7.4215 26337.4
 02 10 2016  07 44  -15.5210 26116.4   3401.5   7.4207 26337.0
 02 10 2016  07 45  -15.5202 26116.2   3402.3   7.4224 26336.9
 02 10 2016  07 46  -15.5214 26115.7   3401.3   7.4205 26336.2
 02 10 2016  07 47  -15.5205 26115.4   3401.3   7.4204 26336.0
 02 10 2016  07 48  -15.5209 26115.1   3401.4   7.4209 26335.7
 02 10 2016  07 49  -15.5207 26115.2   3401.4   7.4208 26335.8
 02 10 2016  07 50  -15.5211 26115.3   3401.8   7.4216 26335.9
 02 10 2016  07 51  -15.5213 26115.1   3402.0   7.4222 26335.8
 02 10 2016  07 52  -15.5211 26115.3   3401.9   7.4218 26335.9
 02 10 2016  07 53  -15.5231 26115.3   3401.6   7.4211 26335.9
 02 10 2016  07 54  -15.5221 26115.8   3402.9   7.4238 26336.6
 02 10 2016  07 55  -15.5223 26116.2   3401.8   7.4214 26336.8
 02 10 2016  07 56  -15.5222 26116.4   3401.9   7.4215 26337.0
 02 10 2016  07 57  -15.5224 26116.0   3403.6   7.4253 26336.8
 02 10 2016  07 58  -15.5229 26116.0   3401.9   7.4217 26336.7
 02 10 2016  07 59  -15.5228 26115.8   3402.3   7.4226 26336.5
 02 10 2016  08 00  -15.5227 26115.9   3402.1   7.4221 26336.5
 02 10 2016  08 01  -15.5233 26116.0   3401.3   7.4204 26336.5
 02 10 2016  08 02  -15.5222 26116.1   3402.5   7.4229 26336.8
 02 10 2016  08 03  -15.5237 26115.9   3402.1   7.4221 26336.6
 02 10 2016  08 04  -15.5233 26116.3   3402.2   7.4222 26336.9
 02 10 2016  08 05  -15.5250 26116.1   3402.0   7.4219 26336.8
 02 10 2016  08 06  -15.5245 26116.7   3401.5   7.4205 26337.3
 02 10 2016  08 07  -15.5247 26116.5   3403.0   7.4240 26337.3
 02 10 2016  08 08  -15.5257 26116.4   3403.2   7.4243 26337.2
 02 10 2016  08 09  -15.5261 26116.7   3401.8   7.4212 26337.4
 02 10 2016  08 10  -15.5270 26116.8   3401.3   7.4201 26337.3
 02 10 2016  08 11  -15.5266 26116.8   3401.9   7.4214 26337.4
 02 10 2016  08 12  -15.5270 26116.6   3401.6   7.4209 26337.2
 02 10 2016  08 13  -15.5275 26116.3   3400.7   7.4189 26336.8
 02 10 2016  08 14  -15.5269 26116.0   3401.7   7.4211 26336.6
 02 10 2016  08 15  -15.5255 26116.1   3403.0   7.4240 26336.9
 02 10 2016  08 16  -15.5262 26116.0   3402.1   7.4220 26336.7
 02 10 2016  08 17  -15.5249 26116.6   3400.9   7.4193 26337.1
 02 10 2016  08 18  -15.5252 26116.4   3401.7   7.4211 26337.0
 02 10 2016  08 19  -15.5254 26116.3   3402.2   7.4221 26337.0
 02 10 2016  08 20  -15.5249 26116.6   3402.1   7.4218 26337.3
 02 10 2016  08 21  -15.5246 26117.1   3401.9   7.4213 26337.7
 02 10 2016  08 22  -15.5245 26118.0   3401.9   7.4211 26338.6
 02 10 2016  08 23  -15.5235 26118.6   3403.6   7.4246 26339.4
 02 10 2016  08 24  -15.5239 26119.4   3403.2   7.4235 26340.2
 02 10 2016  08 25  -15.5241 26119.8   3402.7   7.4223 26340.5
 02 10 2016  08 26  -15.5244 26119.7   3402.9   7.4229 26340.4
 02 10 2016  08 27  -15.5238 26119.0   3403.0   7.4231 26339.7
 02 10 2016  08 28  -15.5235 26117.9   3401.8   7.4208 26338.5
 02 10 2016  08 29  -15.5237 26116.9   3401.5   7.4205 26337.5
 02 10 2016  08 30  -15.5234 26116.7   3401.1   7.4197 26337.2
 02 10 2016  08 31  -15.5231 26116.6   3401.5   7.4206 26337.2
 02 10 2016  08 32  -15.5231 26116.9   3401.8   7.4211 26337.5
 02 10 2016  08 33  -15.5230 26117.3   3401.9   7.4213 26337.9
 02 10 2016  08 34  -15.5222 26117.5   3402.5   7.4225 26338.2
 02 10 2016  08 35  -15.5223 26117.6   3402.3   7.4220 26338.3
 02 10 2016  08 36  -15.5220 26117.7   3402.4   7.4223 26338.4
 02 10 2016  08 37  -15.5217 26117.9   3402.6   7.4227 26338.6
 02 10 2016  08 38  -15.5215 26118.1   3402.8   7.4230 26338.8
 02 10 2016  08 39  -15.5205 26118.6   3403.0   7.4232 26339.4
 02 10 2016  08 40  -15.5212 26118.7   3402.9   7.4230 26339.5
 02 10 2016  08 41  -15.5216 26118.7   3402.9   7.4229 26339.4
 02 10 2016  08 42  -15.5215 26118.9   3402.6   7.4223 26339.6
 02 10 2016  08 43  -15.5214 26118.9   3402.8   7.4227 26339.6
 02 10 2016  08 44  -15.5207 26119.1   3402.7   7.4225 26339.8
 02 10 2016  08 45  -15.5203 26119.0   3402.9   7.4229 26339.8
 02 10 2016  08 46  -15.5201 26119.2   3402.5   7.4220 26339.8
 02 10 2016  08 47  -15.5202 26119.3   3402.8   7.4226 26340.0
 02 10 2016  08 48  -15.5201 26119.5   3402.8   7.4225 26340.2
 02 10 2016  08 49  -15.5200 26119.6   3402.8   7.4226 26340.3
 02 10 2016  08 50  -15.5201 26119.4   3402.6   7.4223 26340.1
 02 10 2016  08 51  -15.5203 26119.2   3402.4   7.4218 26339.9
 02 10 2016  08 52  -15.5203 26119.0   3402.3   7.4217 26339.7
 02 10 2016  08 53  -15.5201 26119.0   3402.4   7.4218 26339.7
 02 10 2016  08 54  -15.5201 26119.2   3402.5   7.4221 26339.9
 02 10 2016  08 55  -15.5202 26119.5   3402.7   7.4224 26340.2
 02 10 2016  08 56  -15.5202 26119.5   3402.7   7.4223 26340.2
 02 10 2016  08 57  -15.5201 26119.5   3402.8   7.4225 26340.2
 02 10 2016  08 58  -15.5195 26119.6   3402.9   7.4227 26340.4
 02 10 2016  08 59  -15.5194 26119.7   3402.8   7.4225 26340.4
 02 10 2016  09 00  -15.5190 26120.0   3403.1   7.4231 26340.8
 02 10 2016  09 01  -15.5191 26120.4   3403.2   7.4231 26341.2
 02 10 2016  09 02  -15.5193 26120.6   3403.0   7.4227 26341.3
 02 10 2016  09 03  -15.5195 26120.6   3403.2   7.4231 26341.4
 02 10 2016  09 04  -15.5200 26120.5   3403.0   7.4228 26341.2
 02 10 2016  09 05  -15.5203 26120.5   3402.8   7.4223 26341.3
 02 10 2016  09 06  -15.5205 26120.8   3403.0   7.4226 26341.5
 02 10 2016  09 07  -15.5208 26120.8   3403.2   7.4231 26341.6
 02 10 2016  09 08  -15.5206 26121.1   3403.2   7.4230 26341.9
 02 10 2016  09 09  -15.5211 26121.2   3403.1   7.4228 26342.0
 02 10 2016  09 10  -15.5211 26121.4   3403.5   7.4235 26342.2
 02 10 2016  09 11  -15.5217 26121.3   3403.0   7.4224 26342.0
 02 10 2016  09 12  -15.5219 26121.3   3403.4   7.4234 26342.1
 02 10 2016  09 13  -15.5220 26121.4   3403.3   7.4230 26342.2
 02 10 2016  09 14  -15.5233 26121.2   3402.8   7.4221 26342.0
 02 10 2016  09 15  -15.5224 26121.6   3403.8   7.4241 26342.4
 02 10 2016  09 16  -15.5229 26121.8   3403.9   7.4244 26342.6
 02 10 2016  09 17  -15.5233 26121.9   3403.3   7.4230 26342.7
 02 10 2016  09 18  -15.5232 26122.1   3403.8   7.4239 26342.9
 02 10 2016  09 19  -15.5232 26122.1   3404.6   7.4257 26343.0
 02 10 2016  09 20  -15.5229 26122.2   3405.6   7.4278 26343.3
 02 10 2016  09 21  -15.5230 26122.5   3404.8   7.4260 26343.5
 02 10 2016  09 22  -15.5229 26122.9   3404.5   7.4253 26343.9
 02 10 2016  09 23  -15.5235 26123.0   3403.6   7.4233 26343.8
 02 10 2016  09 24  -15.5222 26123.3   3404.2   7.4246 26344.2
 02 10 2016  09 25  -15.5224 26123.5   3403.9   7.4239 26344.3
 02 10 2016  09 26  -15.5239 26123.4   3403.9   7.4239 26344.2
 02 10 2016  09 27  -15.5234 26123.5   3405.2   7.4266 26344.5
 02 10 2016  09 28  -15.5224 26124.0   3405.0   7.4262 26345.0
 02 10 2016  09 29  -15.5221 26124.2   3406.0   7.4283 26345.3
 02 10 2016  09 30  -15.5228 26124.4   3405.4   7.4269 26345.4
 02 10 2016  09 31  -15.5227 26124.6   3405.7   7.4274 26345.7
 02 10 2016  09 32  -15.5224 26124.9   3406.0   7.4279 26346.0
 02 10 2016  09 33  -15.5230 26124.9   3405.4   7.4267 26345.9
 02 10 2016  09 34  -15.5227 26125.4   3404.9   7.4255 26346.3
 02 10 2016  09 35  -15.5232 26125.3   3405.4   7.4267 26346.3
 02 10 2016  09 36  -15.5232 26125.5   3405.7   7.4272 26346.5
 02 10 2016  09 37  -15.5233 26125.7   3406.0   7.4277 26346.8
 02 10 2016  09 38  -15.5239 26125.7   3405.6   7.4269 26346.8
 02 10 2016  09 39  -15.5241 26126.0   3405.8   7.4272 26347.1
 02 10 2016  09 40  -15.5243 26126.5   3405.7   7.4269 26347.6
 02 10 2016  09 41  -15.5244 26126.9   3406.0   7.4275 26347.9
 02 10 2016  09 42  -15.5247 26126.9   3406.9   7.4294 26348.0
 02 10 2016  09 43  -15.5248 26127.2   3405.8   7.4268 26348.2
 02 10 2016  09 44  -15.5243 26127.3   3406.5   7.4284 26348.4
 02 10 2016  09 45  -15.5247 26127.4   3406.1   7.4274 26348.5
 02 10 2016  09 46  -15.5248 26127.7   3407.0   7.4294 26348.9
 02 10 2016  09 47  -15.5258 26127.8   3406.0   7.4271 26348.8
 02 10 2016  09 48  -15.5256 26127.7   3406.2   7.4275 26348.8
 02 10 2016  09 49  -15.5260 26127.4   3406.6   7.4285 26348.5
 02 10 2016  09 50  -15.5261 26127.5   3406.3   7.4280 26348.6
 02 10 2016  09 51  -15.5267 26127.8   3406.7   7.4286 26348.9
 02 10 2016  09 52  -15.5270 26127.8   3406.9   7.4291 26349.0
 02 10 2016  09 53  -15.5277 26127.4   3406.4   7.4282 26348.5
 02 10 2016  09 54  -15.5281 26127.0   3406.5   7.4285 26348.1
 02 10 2016  09 55  -15.5284 26126.9   3406.9   7.4293 26348.1
 02 10 2016  09 56  -15.5293 26127.1   3406.7   7.4289 26348.3
 02 10 2016  09 57  -15.5298 26127.4   3407.4   7.4303 26348.6
 02 10 2016  09 58  -15.5308 26127.4   3407.2   7.4298 26348.7
 02 10 2016  09 59  -15.5317 26127.4   3407.1   7.4295 26348.6
 02 10 2016  10 00  -15.5321 26127.1   3407.6   7.4309 26348.4
 02 10 2016  10 01  -15.5329 26127.0   3407.2   7.4300 26348.3
 02 10 2016  10 02  -15.5336 26126.8   3407.3   7.4303 26348.1
 02 10 2016  10 03  -15.5342 26126.7   3407.4   7.4305 26348.0
 02 10 2016  10 04  -15.5342 26126.9   3407.8   7.4314 26348.2
 02 10 2016  10 05  -15.5340 26127.0   3408.7   7.4333 26348.5
 02 10 2016  10 06  -15.5344 26127.4   3407.9   7.4314 26348.8
 02 10 2016  10 07  -15.5345 26127.6   3408.8   7.4332 26349.1
 02 10 2016  10 08  -15.5351 26127.4   3409.1   7.4339 26348.8
 02 10 2016  10 09  -15.5354 26127.4   3408.8   7.4334 26348.8
 02 10 2016  10 10  -15.5358 26127.4   3408.7   7.4330 26348.8
 02 10 2016  10 11  -15.5357 26127.0   3408.8   7.4335 26348.5
 02 10 2016  10 12  -15.5352 26126.9   3409.2   7.4343 26348.4
 02 10 2016  10 13  -15.5352 26126.8   3409.4   7.4347 26348.3
 02 10 2016  10 14  -15.5347 26126.5   3409.3   7.4346 26348.0
 02 10 2016  10 15  -15.5343 26126.2   3410.3   7.4369 26347.8
 02 10 2016  10 16  -15.5346 26126.3   3409.5   7.4352 26347.8
 02 10 2016  10 17  -15.5342 26125.9   3410.3   7.4369 26347.5
 02 10 2016  10 18  -15.5345 26126.2   3409.6   7.4353 26347.8
 02 10 2016  10 19  -15.5360 26125.6   3410.1   7.4366 26347.2
 02 10 2016  10 20  -15.5366 26125.1   3410.1   7.4368 26346.8
 02 10 2016  10 21  -15.5361 26124.6   3410.3   7.4374 26346.2
 02 10 2016  10 22  -15.5368 26124.3   3410.8   7.4384 26346.0
 02 10 2016  10 23  -15.5373 26124.4   3410.9   7.4386 26346.2
 02 10 2016  10 24  -15.5364 26125.0   3412.0   7.4409 26346.9
 02 10 2016  10 25  -15.5363 26125.2   3412.6   7.4420 26347.2
 02 10 2016  10 26  -15.5371 26125.4   3412.7   7.4423 26347.4
 02 10 2016  10 27  -15.5381 26124.8   3412.7   7.4424 26346.7
 02 10 2016  10 28  -15.5389 26124.5   3412.4   7.4419 26346.5
 02 10 2016  10 29  -15.5387 26124.8   3413.3   7.4437 26346.8
 02 10 2016  10 30  -15.5385 26125.2   3414.0   7.4451 26347.3
 02 10 2016  10 31  -15.5389 26125.0   3413.9   7.4449 26347.2
 02 10 2016  10 32  -15.5400 26124.4   3413.8   7.4449 26346.5
 02 10 2016  10 33  -15.5406 26124.2   3413.6   7.4445 26346.3
 02 10 2016  10 34  -15.5400 26124.1   3414.0   7.4455 26346.2
 02 10 2016  10 35  -15.5400 26124.0   3413.9   7.4453 26346.1
 02 10 2016  10 36  -15.5400 26123.3   3414.7   7.4473 26345.5
 02 10 2016  10 37  -15.5392 26123.5   3414.3   7.4462 26345.7
 02 10 2016  10 38  -15.5384 26123.8   3415.4   7.4486 26346.2
 02 10 2016  10 39  -15.5385 26124.1   3415.6   7.4489 26346.4
 02 10 2016  10 40  -15.5382 26124.5   3415.9   7.4495 26346.9
 02 10 2016  10 41  -15.5376 26124.5   3416.0   7.4496 26346.8
 02 10 2016  10 42  -15.5369 26124.8   3416.2   7.4501 26347.2
 02 10 2016  10 43  -15.5364 26124.9   3416.5   7.4507 26347.3
 02 10 2016  10 44  -15.5365 26125.1   3416.5   7.4505 26347.5
 02 10 2016  10 45  -15.5365 26125.5   3416.6   7.4507 26348.0
 02 10 2016  10 46  -15.5362 26125.9   3416.8   7.4510 26348.4
 02 10 2016  10 47  -15.5356 26126.2   3417.0   7.4514 26348.7
 02 10 2016  10 48  -15.5350 26126.3   3416.9   7.4511 26348.8
 02 10 2016  10 49  -15.5352 26126.2   3417.0   7.4514 26348.7
 02 10 2016  10 50  -15.5354 26125.9   3417.0   7.4515 26348.4
 02 10 2016  10 51  -15.5346 26125.6   3416.7   7.4509 26348.1
 02 10 2016  10 52  -15.5337 26125.5   3417.2   7.4519 26348.0
 02 10 2016  10 53  -15.5334 26125.2   3417.4   7.4524 26347.8
 02 10 2016  10 54  -15.5332 26124.9   3417.1   7.4519 26347.5
 02 10 2016  10 55  -15.5323 26124.6   3417.7   7.4533 26347.2
 02 10 2016  10 56  -15.5316 26124.2   3417.7   7.4534 26346.8
 02 10 2016  10 57  -15.5312 26123.8   3417.8   7.4536 26346.4
 02 10 2016  10 58  -15.5315 26123.3   3417.7   7.4536 26346.0
 02 10 2016  10 59  -15.5304 26122.7   3417.7   7.4539 26345.3
 02 10 2016  11 00  -15.5290 26122.1   3418.2   7.4550 26344.8
 02 10 2016  11 01  -15.5293 26122.0   3418.8   7.4564 26344.7
 02 10 2016  11 02  -15.5305 26122.0   3418.5   7.4558 26344.7
 02 10 2016  11 03  -15.5312 26122.5   3419.2   7.4571 26345.3
 02 10 2016  11 04  -15.5317 26122.2   3419.4   7.4577 26345.1
 02 10 2016  11 05  -15.5311 26122.1   3420.2   7.4594 26345.1
 02 10 2016  11 06  -15.5313 26122.0   3419.2   7.4573 26344.8
 02 10 2016  11 07  -15.5313 26122.1   3419.3   7.4575 26344.9
 02 10 2016  11 08  -15.5312 26122.1   3419.2   7.4573 26344.9
 02 10 2016  11 09  -15.5312 26122.0   3419.2   7.4572 26344.9
 02 10 2016  11 10  -15.5288 26122.8   3419.6   7.4578 26345.7
 02 10 2016  11 11  -15.5298 26123.5   3419.4   7.4573 26346.4
 02 10 2016  11 12  -15.5301 26123.9   3419.1   7.4565 26346.7
 02 10 2016  11 13  -15.5303 26124.3   3418.7   7.4554 26347.1
 02 10 2016  11 14  -15.5298 26125.3   3420.9   7.4599 26348.3
 02 10 2016  11 15  -15.5300 26126.3   3421.2   7.4604 26349.3
 02 10 2016  11 16  -15.5286 26127.0   3419.9   7.4574 26349.9
 02 10 2016  11 17  -15.5276 26127.5   3419.8   7.4571 26350.4
 02 10 2016  11 18  -15.5275 26128.2   3419.3   7.4557 26351.0
 02 10 2016  11 19  -15.5273 26129.3   3419.1   7.4551 26352.1
 02 10 2016  11 20  -15.5275 26130.6   3419.8   7.4562 26353.4
 02 10 2016  11 21  -15.5284 26131.2   3418.6   7.4534 26353.9
 02 10 2016  11 22  -15.5280 26131.6   3418.2   7.4523 26354.2
 02 10 2016  11 23  -15.5274 26131.6   3417.8   7.4515 26354.1
 02 10 2016  11 24  -15.5276 26131.3   3417.1   7.4502 26353.8
 02 10 2016  11 25  -15.5278 26131.7   3417.6   7.4510 26354.3
 02 10 2016  11 26  -15.5288 26131.9   3417.1   7.4500 26354.3
 02 10 2016  11 27  -15.5287 26132.1   3417.4   7.4505 26354.6
 02 10 2016  11 28  -15.5287 26132.4   3417.4   7.4505 26354.9
 02 10 2016  11 29  -15.5280 26133.1   3417.5   7.4504 26355.6
 02 10 2016  11 30  -15.5277 26133.4   3417.6   7.4505 26355.9
 02 10 2016  11 31  -15.5281 26133.7   3417.3   7.4499 26356.2
 02 10 2016  11 32  -15.5278 26134.2   3417.4   7.4500 26356.6
 02 10 2016  11 33  -15.5283 26134.6   3417.0   7.4489 26357.0
 02 10 2016  11 34  -15.5278 26135.1   3417.1   7.4491 26357.5
 02 10 2016  11 35  -15.5280 26135.4   3417.3   7.4495 26357.8
 02 10 2016  11 36  -15.5272 26135.6   3417.0   7.4487 26358.0
 02 10 2016  11 37  -15.5264 26136.3   3416.1   7.4465 26358.6
 02 10 2016  11 38  -15.5268 26136.6   3416.6   7.4475 26358.9
 02 10 2016  11 39  -15.5257 26137.0   3415.9   7.4458 26359.3
 02 10 2016  11 40  -15.5264 26137.1   3415.7   7.4455 26359.3
 02 10 2016  11 41  -15.5260 26136.7   3414.9   7.4438 26358.8
 02 10 2016  11 42  -15.5253 26137.0   3415.3   7.4447 26359.2
 02 10 2016  11 43  -15.5249 26137.3   3414.7   7.4432 26359.4
 02 10 2016  11 44  -15.5247 26138.0   3415.2   7.4441 26360.2
 02 10 2016  11 45  -15.5246 26138.4   3414.2   7.4419 26360.5
 02 10 2016  11 46  -15.5248 26138.9   3414.6   7.4426 26361.0
 02 10 2016  11 47  -15.5242 26139.9   3414.7   7.4424 26362.0
 02 10 2016  11 48  -15.5237 26140.3   3414.5   7.4420 26362.4
 02 10 2016  11 49  -15.5233 26140.1   3414.3   7.4417 26362.1
 02 10 2016  11 50  -15.5236 26140.3   3413.9   7.4406 26362.3
 02 10 2016  11 51  -15.5229 26140.9   3413.6   7.4398 26362.8
 02 10 2016  11 52  -15.5231 26141.6   3412.7   7.4378 26363.4
 02 10 2016  11 53  -15.5234 26141.8   3411.6   7.4353 26363.5
 02 10 2016  11 54  -15.5232 26141.8   3412.2   7.4366 26363.6
 02 10 2016  11 55  -15.5239 26142.1   3412.0   7.4361 26363.8
 02 10 2016  11 56  -15.5241 26142.4   3413.1   7.4383 26364.2
 02 10 2016  11 57  -15.5241 26143.4   3411.9   7.4355 26365.1
 02 10 2016  11 58  -15.5239 26143.7   3411.5   7.4345 26365.4
 02 10 2016  11 59  -15.5246 26143.6   3410.8   7.4331 26365.2
 02 10 2016  12 00  -15.5248 26143.2   3409.6   7.4306 26364.6
 02 10 2016  12 01  -15.5243 26143.2   3409.7   7.4307 26364.6
 02 10 2016  12 02  -15.5238 26143.3   3409.7   7.4308 26364.8
 02 10 2016  12 03  -15.5232 26144.4   3409.9   7.4308 26365.8
 02 10 2016  12 04  -15.5232 26145.5   3409.2   7.4291 26366.8
 02 10 2016  12 05  -15.5238 26146.3   3408.3   7.4270 26367.5
 02 10 2016  12 06  -15.5234 26146.9   3408.8   7.4278 26368.2
 02 10 2016  12 07  -15.5229 26147.7   3409.3   7.4287 26369.1
 02 10 2016  12 08  -15.5233 26148.2   3409.0   7.4278 26369.4
 02 10 2016  12 09  -15.5228 26149.3   3407.5   7.4244 26370.4
 02 10 2016  12 10  -15.5242 26150.0   3406.5   7.4219 26371.0
 02 10 2016  12 11  -15.5247 26150.4   3406.6   7.4221 26371.3
 02 10 2016  12 12  -15.5260 26150.6   3405.7   7.4201 26371.5
 02 10 2016  12 13  -15.5260 26150.5   3404.0   7.4165 26371.2
 02 10 2016  12 14  -15.5256 26150.7   3404.4   7.4172 26371.4
 02 10 2016  12 15  -15.5265 26150.8   3404.7   7.4179 26371.5
 02 10 2016  12 16  -15.5264 26151.9   3403.5   7.4151 26372.5
 02 10 2016  12 17  -15.5275 26152.4   3402.9   7.4135 26372.9
 02 10 2016  12 18  -15.5276 26152.4   3403.0   7.4137 26372.9
 02 10 2016  12 19  -15.5284 26152.2   3402.0   7.4116 26372.5
 02 10 2016  12 20  -15.5287 26152.3   3402.1   7.4118 26372.6
 02 10 2016  12 21  -15.5295 26152.4   3401.8   7.4111 26372.8
 02 10 2016  12 22  -15.5299 26153.5   3401.9   7.4110 26373.8
 02 10 2016  12 23  -15.5299 26154.0   3401.9   7.4109 26374.3
 02 10 2016  12 24  -15.5303 26153.9   3400.2   7.4074 26374.1
 02 10 2016  12 25  -15.5312 26153.4   3400.0   7.4069 26373.5
 02 10 2016  12 26  -15.5316 26153.3   3398.8   7.4045 26373.2
 02 10 2016  12 27  -15.5318 26153.1   3400.4   7.4080 26373.2
 02 10 2016  12 28  -15.5323 26153.0   3399.3   7.4055 26373.0
 02 10 2016  12 29  -15.5322 26153.4   3399.9   7.4069 26373.5
 02 10 2016  12 30  -15.5332 26153.5   3399.2   7.4052 26373.4
 02 10 2016  12 31  -15.5343 26153.2   3398.6   7.4041 26373.1
 02 10 2016  12 32  -15.5351 26152.7   3398.2   7.4033 26372.6
 02 10 2016  12 33  -15.5357 26151.6   3398.0   7.4033 26371.5
 02 10 2016  12 34  -15.5374 26151.1   3397.9   7.4031 26370.9
 02 10 2016  12 35  -15.5361 26151.6   3398.5   7.4042 26371.5
 02 10 2016  12 36  -15.5370 26151.3   3398.2   7.4037 26371.2
 02 10 2016  12 37  -15.5376 26152.0   3397.9   7.4029 26371.9
 02 10 2016  12 38  -15.5377 26152.1   3397.7   7.4024 26371.9
 02 10 2016  12 39  -15.5380 26152.2   3397.2   7.4013 26371.9
 02 10 2016  12 40  -15.5390 26151.7   3397.0   7.4010 26371.4
 02 10 2016  12 41  -15.5390 26152.6   3397.4   7.4016 26372.4
 02 10 2016  12 42  -15.5390 26153.5   3397.2   7.4010 26373.2
 02 10 2016  12 43  -15.5388 26154.4   3397.2   7.4006 26374.1
 02 10 2016  12 44  -15.5387 26155.1   3396.6   7.3993 26374.7
 02 10 2016  12 45  -15.5385 26155.9   3396.4   7.3985 26375.5
 02 10 2016  12 46  -15.5389 26157.0   3396.0   7.3974 26376.5
 02 10 2016  12 47  -15.5391 26157.7   3395.1   7.3952 26377.1
 02 10 2016  12 48  -15.5398 26157.4   3394.1   7.3933 26376.7
 02 10 2016  12 49  -15.5409 26156.2   3392.7   7.3904 26375.3
 02 10 2016  12 50  -15.5414 26155.2   3392.1   7.3894 26374.3
 02 10 2016  12 51  -15.5426 26154.1   3392.0   7.3897 26373.1
 02 10 2016  12 52  -15.5437 26153.6   3391.0   7.3877 26372.6
 02 10 2016  12 53  -15.5446 26153.7   3390.3   7.3861 26372.5
 02 10 2016  12 54  -15.5447 26153.5   3389.9   7.3852 26372.3
 02 10 2016  12 55  -15.5440 26153.0   3391.5   7.3889 26372.0
 02 10 2016  12 56  -15.5453 26152.7   3391.0   7.3879 26371.6
 02 10 2016  12 57  -15.5449 26153.7   3390.9   7.3873 26372.6
 02 10 2016  12 58  -15.5443 26154.6   3390.3   7.3859 26373.4
 02 10 2016  12 59  -15.5447 26155.2   3389.4   7.3837 26373.9
 02 10 2016  13 00  -15.5444 26155.8   3390.5   7.3859 26374.7
 02 10 2016  13 01  -15.5440 26156.0   3390.2   7.3853 26374.8
 02 10 2016  13 02  -15.5450 26156.4   3387.7   7.3797 26374.9
 02 10 2016  13 03  -15.5456 26156.5   3387.0   7.3782 26374.9
 02 10 2016  13 04  -15.5446 26158.4   3387.7   7.3793 26376.8
 02 10 2016  13 05  -15.5455 26159.6   3387.2   7.3778 26378.0
 02 10 2016  13 06  -15.5458 26160.0   3386.4   7.3760 26378.3
 02 10 2016  13 07  -15.5455 26162.0   3387.0   7.3766 26380.3
 02 10 2016  13 08  -15.5447 26164.3   3386.7   7.3754 26382.6
 02 10 2016  13 09  -15.5456 26164.8   3386.7   7.3751 26383.1
 02 10 2016  13 10  -15.5448 26165.4   3385.3   7.3720 26383.5
 02 10 2016  13 11  -15.5450 26166.3   3385.6   7.3725 26384.4
 02 10 2016  13 12  -15.5455 26166.8   3383.4   7.3676 26384.6
 02 10 2016  13 13  -15.5466 26166.1   3382.8   7.3664 26383.8
 02 10 2016  13 14  -15.5469 26166.3   3382.0   7.3646 26383.9
 02 10 2016  13 15  -15.5468 26166.5   3381.4   7.3634 26384.0
 02 10 2016  13 16  -15.5483 26165.9   3380.6   7.3617 26383.4
 02 10 2016  13 17  -15.5473 26165.7   3380.9   7.3624 26383.2
 02 10 2016  13 18  -15.5482 26165.5   3380.3   7.3612 26383.0
 02 10 2016  13 19  -15.5495 26165.6   3379.8   7.3601 26382.9
 02 10 2016  13 20  -15.5506 26166.2   3379.4   7.3590 26383.6
 02 10 2016  13 21  -15.5509 26166.4   3379.7   7.3597 26383.8
 02 10 2016  13 22  -15.5517 26166.6   3379.4   7.3590 26384.0
 02 10 2016  13 23  -15.5520 26166.6   3378.7   7.3575 26383.9
 02 10 2016  13 24  -15.5513 26167.3   3378.7   7.3572 26384.5
 02 10 2016  13 25  -15.5505 26168.0   3378.7   7.3572 26385.2
 02 10 2016  13 26  -15.5501 26168.8   3378.5   7.3565 26386.0
 02 10 2016  13 27  -15.5497 26169.8   3378.6   7.3564 26387.0
 02 10 2016  13 28  -15.5491 26170.4   3377.4   7.3536 26387.4
 02 10 2016  13 29  -15.5489 26170.6   3377.0   7.3528 26387.6
 02 10 2016  13 30  -15.5489 26171.5   3375.9   7.3501 26388.4
 02 10 2016  13 31  -15.5490 26171.8   3374.4   7.3467 26388.4
 02 10 2016  13 32  -15.5499 26170.4   3373.2   7.3446 26386.9
 02 10 2016  13 33  -15.5497 26169.5   3373.4   7.3453 26386.0
 02 10 2016  13 34  -15.5500 26168.8   3373.8   7.3463 26385.4
 02 10 2016  13 35  -15.5495 26168.9   3373.7   7.3460 26385.4
 02 10 2016  13 36  -15.5496 26169.3   3374.2   7.3469 26385.9
 02 10 2016  13 37  -15.5511 26169.0   3373.1   7.3446 26385.5
 02 10 2016  13 38  -15.5515 26168.9   3373.4   7.3454 26385.4
 02 10 2016  13 39  -15.5528 26169.2   3374.1   7.3468 26385.8
 02 10 2016  13 40  -15.5542 26169.4   3373.6   7.3458 26385.9
 02 10 2016  13 41  -15.5560 26168.7   3373.2   7.3451 26385.2
 02 10 2016  13 42  -15.5568 26167.9   3373.2   7.3452 26384.4
 02 10 2016  13 43  -15.5575 26168.5   3373.2   7.3450 26385.0
 02 10 2016  13 44  -15.5585 26169.2   3373.9   7.3464 26385.8
 02 10 2016  13 45  -15.5580 26170.4   3374.0   7.3463 26387.0
 02 10 2016  13 46  -15.5567 26170.6   3373.2   7.3446 26387.1
 02 10 2016  13 47  -15.5579 26169.7   3371.7   7.3414 26386.0
 02 10 2016  13 48  -15.5586 26169.1   3372.3   7.3431 26385.5
 02 10 2016  13 49  -15.5583 26169.9   3372.7   7.3437 26386.3
 02 10 2016  13 50  -15.5580 26170.8   3373.8   7.3457 26387.4
 02 10 2016  13 51  -15.5579 26171.3   3372.6   7.3430 26387.7
 02 10 2016  13 52  -15.5576 26171.4   3373.0   7.3439 26387.9
 02 10 2016  13 53  -15.5576 26171.7   3372.1   7.3418 26388.0
 02 10 2016  13 54  -15.5586 26171.6   3371.3   7.3402 26387.9
 02 10 2016  13 55  -15.5574 26172.1   3371.3   7.3401 26388.4
 02 10 2016  13 56  -15.5580 26172.3   3372.0   7.3415 26388.7
 02 10 2016  13 57  -15.5585 26172.9   3371.8   7.3408 26389.2
 02 10 2016  13 58  -15.5577 26174.0   3371.6   7.3401 26390.3
 02 10 2016  13 59  -15.5570 26175.2   3371.3   7.3392 26391.4
 02 10 2016  14 00  -15.5575 26176.2   3371.2   7.3386 26392.3
 02 10 2016  14 01  -15.5570 26177.3   3370.9   7.3376 26393.5
 02 10 2016  14 02  -15.5576 26178.3   3370.6   7.3368 26394.4
 02 10 2016  14 03  -15.5569 26179.3   3370.0   7.3352 26395.3
 02 10 2016  14 04  -15.5568 26179.8   3370.3   7.3356 26395.9
 02 10 2016  14 05  -15.5562 26181.0   3369.6   7.3338 26397.0
 02 10 2016  14 06  -15.5561 26182.4   3369.6   7.3334 26398.3
 02 10 2016  14 07  -15.5559 26183.8   3368.5   7.3308 26399.6
 02 10 2016  14 08  -15.5556 26184.5   3367.2   7.3278 26400.1
 02 10 2016  14 09  -15.5552 26185.8   3366.7   7.3264 26401.3
 02 10 2016  14 10  -15.5546 26186.5   3366.7   7.3262 26402.1
 02 10 2016  14 11  -15.5534 26188.1   3366.0   7.3242 26403.5
 02 10 2016  14 12  -15.5534 26188.5   3364.3   7.3205 26403.7
 02 10 2016  14 13  -15.5535 26187.5   3363.5   7.3190 26402.6
 02 10 2016  14 14  -15.5532 26187.4   3363.1   7.3182 26402.5
 02 10 2016  14 15  -15.5536 26187.0   3363.2   7.3184 26402.0
 02 10 2016  14 16  -15.5537 26187.0   3363.2   7.3185 26402.1
 02 10 2016  14 17  -15.5539 26187.2   3362.9   7.3177 26402.2
 02 10 2016  14 18  -15.5537 26187.7   3363.3   7.3184 26402.8
 02 10 2016  14 19  -15.5534 26188.0   3363.7   7.3192 26403.1
 02 10 2016  14 20  -15.5523 26188.8   3363.5   7.3187 26403.9
 02 10 2016  14 21  -15.5510 26190.2   3363.8   7.3188 26405.3
 02 10 2016  14 22  -15.5505 26190.8   3363.1   7.3172 26405.8
 02 10 2016  14 23  -15.5496 26190.6   3361.9   7.3146 26405.5
 02 10 2016  14 24  -15.5502 26190.1   3360.9   7.3126 26404.9
 02 10 2016  14 25  -15.5507 26189.7   3360.6   7.3120 26404.4
 02 10 2016  14 26  -15.5503 26189.8   3360.8   7.3124 26404.6
 02 10 2016  14 27  -15.5509 26189.0   3359.7   7.3103 26403.6
 02 10 2016  14 28  -15.5510 26188.7   3360.0   7.3111 26403.4
 02 10 2016  14 29  -15.5510 26188.0   3360.1   7.3115 26402.7
 02 10 2016  14 30  -15.5504 26187.2   3361.4   7.3145 26402.0
 02 10 2016  14 31  -15.5502 26186.5   3361.3   7.3145 26401.3
 02 10 2016  14 32  -15.5513 26184.8   3359.8   7.3116 26399.5
 02 10 2016  14 33  -15.5514 26183.8   3360.3   7.3131 26398.5
 02 10 2016  14 34  -15.5512 26183.6   3362.8   7.3186 26398.7
 02 10 2016  14 35  -15.5510 26183.5   3363.6   7.3202 26398.6
 02 10 2016  14 36  -15.5508 26183.4   3363.7   7.3206 26398.6
 02 10 2016  14 37  -15.5512 26183.9   3363.4   7.3197 26399.0
 02 10 2016  14 38  -15.5509 26184.0   3364.1   7.3211 26399.2
 02 10 2016  14 39  -15.5515 26183.1   3364.9   7.3232 26398.4
 02 10 2016  14 40  -15.5525 26182.3   3364.6   7.3227 26397.6
 02 10 2016  14 41  -15.5514 26182.5   3364.9   7.3234 26397.8
 02 10 2016  14 42  -15.5513 26182.7   3365.4   7.3244 26398.1
 02 10 2016  14 43  -15.5501 26183.2   3367.4   7.3286 26398.8
 02 10 2016  14 44  -15.5496 26183.8   3368.4   7.3305 26399.6
 02 10 2016  14 45  -15.5493 26185.2   3368.9   7.3312 26401.1
 02 10 2016  14 46  -15.5497 26186.6   3369.6   7.3323 26402.5
 02 10 2016  14 47  -15.5488 26188.0   3369.7   7.3322 26403.9
 02 10 2016  14 48  -15.5498 26188.5   3368.9   7.3302 26404.3
 02 10 2016  14 49  -15.5504 26189.0   3367.8   7.3278 26404.7
 02 10 2016  14 50  -15.5503 26188.9   3367.9   7.3280 26404.6
 02 10 2016  14 51  -15.5512 26188.6   3365.9   7.3237 26404.0
 02 10 2016  14 52  -15.5510 26188.6   3365.5   7.3230 26404.0
 02 10 2016  14 53  -15.5512 26188.1   3365.0   7.3221 26403.4
 02 10 2016  14 54  -15.5517 26187.2   3364.1   7.3204 26402.4
 02 10 2016  14 55  -15.5507 26186.9   3363.5   7.3191 26402.0
 02 10 2016  14 56  -15.5498 26186.3   3364.0   7.3204 26401.5
 02 10 2016  14 57  -15.5484 26185.6   3364.3   7.3212 26400.8
 02 10 2016  14 58  -15.5475 26184.8   3363.5   7.3196 26400.0
 02 10 2016  14 59  -15.5457 26184.0   3363.8   7.3205 26399.2
 02 10 2016  15 00  -15.5440 26184.2   3365.1   7.3234 26399.6
 02 10 2016  15 01  -15.5422 26185.3   3365.9   7.3248 26400.8
 02 10 2016  15 02  -15.5423 26186.0   3366.7   7.3263 26401.6
 02 10 2016  15 03  -15.5414 26186.5   3366.8   7.3264 26402.0
 02 10 2016  15 04  -15.5428 26186.2   3367.2   7.3272 26401.8
 02 10 2016  15 05  -15.5431 26186.0   3366.6   7.3260 26401.5
 02 10 2016  15 06  -15.5437 26185.8   3366.1   7.3249 26401.2
 02 10 2016  15 07  -15.5439 26185.8   3366.6   7.3261 26401.3
 02 10 2016  15 08  -15.5445 26185.4   3366.4   7.3257 26400.9
 02 10 2016  15 09  -15.5441 26184.8   3366.9   7.3270 26400.4
 02 10 2016  15 10  -15.5439 26183.8   3367.9   7.3293 26399.5
 02 10 2016  15 11  -15.5436 26183.5   3367.4   7.3285 26399.2
 02 10 2016  15 12  -15.5437 26182.8   3367.6   7.3290 26398.4
 02 10 2016  15 13  -15.5434 26182.1   3368.8   7.3319 26397.9
 02 10 2016  15 14  -15.5435 26181.7   3367.8   7.3298 26397.4
 02 10 2016  15 15  -15.5432 26181.3   3368.8   7.3321 26397.2
 02 10 2016  15 16  -15.5421 26181.3   3369.6   7.3339 26397.3
 02 10 2016  15 17  -15.5420 26181.1   3370.1   7.3349 26397.1
 02 10 2016  15 18  -15.5422 26180.8   3369.9   7.3345 26396.8
 02 10 2016  15 19  -15.5416 26180.6   3369.6   7.3340 26396.6
 02 10 2016  15 20  -15.5410 26180.6   3369.6   7.3339 26396.5
 02 10 2016  15 21  -15.5408 26180.5   3370.0   7.3349 26396.5
 02 10 2016  15 22  -15.5400 26180.6   3370.5   7.3359 26396.7
 02 10 2016  15 23  -15.5393 26181.0   3369.7   7.3341 26396.9
 02 10 2016  15 24  -15.5386 26180.7   3370.5   7.3360 26396.8
 02 10 2016  15 25  -15.5385 26180.1   3370.5   7.3360 26396.2
 02 10 2016  15 26  -15.5372 26180.1   3370.5   7.3360 26396.2
 02 10 2016  15 27  -15.5365 26180.2   3371.1   7.3374 26396.4
 02 10 2016  15 28  -15.5370 26180.1   3370.5   7.3360 26396.1
 02 10 2016  15 29  -15.5357 26180.2   3370.0   7.3349 26396.2
 02 10 2016  15 30  -15.5357 26179.7   3370.6   7.3365 26395.8
 02 10 2016  15 31  -15.5354 26179.5   3371.6   7.3385 26395.7
 02 10 2016  15 32  -15.5354 26179.4   3370.0   7.3352 26395.4
 02 10 2016  15 33  -15.5352 26178.9   3371.3   7.3381 26395.1
 02 10 2016  15 34  -15.5344 26178.8   3371.1   7.3377 26394.9
 02 10 2016  15 35  -15.5347 26178.2   3371.1   7.3379 26394.3
 02 10 2016  15 36  -15.5334 26178.0   3371.9   7.3397 26394.3
 02 10 2016  15 37  -15.5325 26177.9   3372.4   7.3408 26394.2
 02 10 2016  15 38  -15.5316 26177.8   3372.8   7.3416 26394.2
 02 10 2016  15 39  -15.5314 26177.6   3372.5   7.3411 26393.9
 02 10 2016  15 40  -15.5305 26177.9   3371.7   7.3393 26394.2
 02 10 2016  15 41  -15.5300 26178.2   3371.9   7.3396 26394.4
 02 10 2016  15 42  -15.5295 26178.0   3373.0   7.3420 26394.4
 02 10 2016  15 43  -15.5284 26177.7   3373.2   7.3426 26394.1
 02 10 2016  15 44  -15.5286 26177.1   3372.7   7.3415 26393.5
 02 10 2016  15 45  -15.5280 26177.1   3372.4   7.3410 26393.4
 02 10 2016  15 46  -15.5271 26176.5   3373.3   7.3432 26393.0
 02 10 2016  15 47  -15.5257 26176.6   3372.6   7.3415 26393.0
 02 10 2016  15 48  -15.5251 26176.0   3374.1   7.3450 26392.5
 02 10 2016  15 49  -15.5256 26175.6   3373.5   7.3437 26392.1
 02 10 2016  15 50  -15.5251 26175.2   3373.0   7.3428 26391.7
 02 10 2016  15 51  -15.5237 26174.9   3372.6   7.3420 26391.3
 02 10 2016  15 52  -15.5237 26174.2   3373.6   7.3443 26390.7
 02 10 2016  15 53  -15.5225 26173.7   3374.2   7.3458 26390.3
 02 10 2016  15 54  -15.5235 26173.3   3373.3   7.3440 26389.8
 02 10 2016  15 55  -15.5226 26172.9   3375.0   7.3478 26389.6
 02 10 2016  15 56  -15.5221 26172.7   3374.1   7.3458 26389.3
 02 10 2016  15 57  -15.5225 26171.7   3374.2   7.3464 26388.4
 02 10 2016  15 58  -15.5231 26171.0   3373.3   7.3446 26387.5
 02 10 2016  15 59  -15.5224 26170.7   3373.5   7.3452 26387.2
 02 10 2016  16 00  -15.5219 26170.4   3374.2   7.3467 26387.0
 02 10 2016  16 01  -15.5209 26170.5   3374.6   7.3475 26387.2
 02 10 2016  16 02  -15.5199 26170.5   3376.3   7.3513 26387.4
 02 10 2016  16 03  -15.5196 26170.5   3375.4   7.3493 26387.3
 02 10 2016  16 04  -15.5204 26170.4   3375.0   7.3486 26387.1
 02 10 2016  16 05  -15.5193 26170.1   3375.2   7.3489 26386.9
 02 10 2016  16 06  -15.5200 26169.0   3374.2   7.3472 26385.6
 02 10 2016  16 07  -15.5190 26168.5   3373.6   7.3459 26385.1
 02 10 2016  16 08  -15.5182 26168.5   3374.6   7.3482 26385.2
 02 10 2016  16 09  -15.5174 26168.5   3375.5   7.3500 26385.3
 02 10 2016  16 10  -15.5174 26168.5   3374.9   7.3487 26385.3
 02 10 2016  16 11  -15.5179 26168.1   3375.5   7.3502 26384.9
 02 10 2016  16 12  -15.5173 26168.1   3374.8   7.3486 26384.8
 02 10 2016  16 13  -15.5171 26167.6   3374.1   7.3473 26384.2
 02 10 2016  16 14  -15.5171 26166.0   3374.6   7.3489 26382.7
 02 10 2016  16 15  -15.5163 26165.6   3373.4   7.3463 26382.2
 02 10 2016  16 16  -15.5154 26165.4   3375.0   7.3498 26382.2
 02 10 2016  16 17  -15.5159 26164.5   3374.6   7.3493 26381.2
 02 10 2016  16 18  -15.5138 26163.8   3374.9   7.3500 26380.5
 02 10 2016  16 19  -15.5141 26162.9   3374.1   7.3486 26379.6
 02 10 2016  16 20  -15.5144 26162.9   3375.2   7.3510 26379.8
 02 10 2016  16 21  -15.5140 26162.3   3377.1   7.3551 26379.4
 02 10 2016  16 22  -15.5135 26161.1   3376.2   7.3535 26378.0
 02 10 2016  16 23  -15.5138 26159.8   3375.6   7.3526 26376.7
 02 10 2016  16 24  -15.5143 26158.2   3376.9   7.3559 26375.3
 02 10 2016  16 25  -15.5140 26156.8   3378.0   7.3587 26374.0
 02 10 2016  16 26  -15.5140 26155.6   3377.5   7.3580 26372.7
 02 10 2016  16 27  -15.5139 26154.2   3377.8   7.3589 26371.4
 02 10 2016  16 28  -15.5139 26153.2   3378.9   7.3616 26370.6
 02 10 2016  16 29  -15.5135 26152.7   3379.5   7.3630 26370.1
 02 10 2016  16 30  -15.5129 26152.1   3380.3   7.3650 26369.7
 02 10 2016  16 31  -15.5123 26151.8   3381.6   7.3679 26369.6
 02 10 2016  16 32  -15.5118 26151.6   3382.2   7.3691 26369.4
 02 10 2016  16 33  -15.5119 26151.7   3382.3   7.3693 26369.5
 02 10 2016  16 34  -15.5114 26151.5   3382.7   7.3703 26369.3
 02 10 2016  16 35  -15.5106 26151.0   3383.9   7.3730 26369.0
 02 10 2016  16 36  -15.5103 26150.9   3383.4   7.3720 26368.8
 02 10 2016  16 37  -15.5100 26150.4   3383.5   7.3724 26368.4
 02 10 2016  16 38  -15.5090 26149.9   3384.2   7.3739 26368.0
 02 10 2016  16 39  -15.5093 26149.3   3384.8   7.3755 26367.5
 02 10 2016  16 40  -15.5081 26149.7   3385.5   7.3768 26367.9
 02 10 2016  16 41  -15.5088 26149.5   3385.3   7.3765 26367.8
 02 10 2016  16 42  -15.5090 26149.0   3385.6   7.3772 26367.2
 02 10 2016  16 43  -15.5093 26147.8   3384.9   7.3760 26365.9
 02 10 2016  16 44  -15.5084 26146.8   3385.4   7.3775 26365.0
 02 10 2016  16 45  -15.5091 26145.8   3385.1   7.3770 26364.0
 02 10 2016  16 46  -15.5090 26145.0   3386.0   7.3793 26363.3
 02 10 2016  16 47  -15.5090 26144.3   3385.7   7.3787 26362.6
 02 10 2016  16 48  -15.5088 26143.9   3387.2   7.3822 26362.4
 02 10 2016  16 49  -15.5080 26143.3   3386.5   7.3807 26361.7
 02 10 2016  16 50  -15.5079 26143.0   3387.9   7.3838 26361.6
 02 10 2016  16 51  -15.5083 26143.3   3388.9   7.3860 26362.0
 02 10 2016  16 52  -15.5068 26143.9   3388.7   7.3853 26362.6
 02 10 2016  16 53  -15.5069 26144.2   3388.5   7.3847 26362.9
 02 10 2016  16 54  -15.5063 26144.3   3390.1   7.3882 26363.2
 02 10 2016  16 55  -15.5059 26144.7   3389.6   7.3870 26363.5
 02 10 2016  16 56  -15.5060 26144.4   3388.8   7.3854 26363.1
 02 10 2016  16 57  -15.5063 26143.8   3388.9   7.3859 26362.5
 02 10 2016  16 58  -15.5071 26143.2   3388.3   7.3846 26361.9
 02 10 2016  16 59  -15.5067 26142.3   3389.9   7.3883 26361.2
 02 10 2016  17 00  -15.5062 26142.5   3390.2   7.3889 26361.4
 02 10 2016  17 01  -15.5067 26142.5   3390.2   7.3889 26361.4
 02 10 2016  17 02  -15.5072 26142.1   3390.9   7.3907 26361.1
 02 10 2016  17 03  -15.5070 26141.2   3390.9   7.3908 26360.2
 02 10 2016  17 04  -15.5073 26140.1   3391.0   7.3913 26359.1
 02 10 2016  17 05  -15.5064 26139.5   3391.1   7.3917 26358.5
 02 10 2016  17 06  -15.5064 26139.2   3391.5   7.3928 26358.3
 02 10 2016  17 07  -15.5066 26139.1   3392.4   7.3946 26358.3
 02 10 2016  17 08  -15.5065 26138.8   3392.7   7.3955 26358.1
 02 10 2016  17 09  -15.5060 26138.5   3392.6   7.3953 26357.7
 02 10 2016  17 10  -15.5064 26137.6   3393.1   7.3966 26356.9
 02 10 2016  17 11  -15.5069 26135.9   3393.2   7.3972 26355.2
 02 10 2016  17 12  -15.5063 26134.6   3393.6   7.3985 26354.0
 02 10 2016  17 13  -15.5068 26133.5   3393.1   7.3978 26352.8
 02 10 2016  17 14  -15.5067 26132.2   3394.5   7.4012 26351.8
 02 10 2016  17 15  -15.5061 26131.2   3394.3   7.4011 26350.7
 02 10 2016  17 16  -15.5064 26130.5   3395.1   7.4029 26350.2
 02 10 2016  17 17  -15.5059 26129.4   3396.8   7.4068 26349.2
 02 10 2016  17 18  -15.5058 26128.7   3396.7   7.4069 26348.5
 02 10 2016  17 19  -15.5064 26127.9   3397.5   7.4088 26347.9
 02 10 2016  17 20  -15.5060 26127.8   3397.1   7.4080 26347.7
 02 10 2016  17 21  -15.5056 26127.6   3398.1   7.4101 26347.6
 02 10 2016  17 22  -15.5071 26126.9   3399.1   7.4124 26347.1
 02 10 2016  17 23  -15.5061 26126.9   3399.4   7.4132 26347.1
 02 10 2016  17 24  -15.5067 26126.4   3399.2   7.4128 26346.6
 02 10 2016  17 25  -15.5077 26125.7   3400.3   7.4154 26346.0
 02 10 2016  17 26  -15.5075 26125.6   3401.6   7.4182 26346.1
 02 10 2016  17 27  -15.5072 26125.8   3400.6   7.4160 26346.2
 02 10 2016  17 28  -15.5078 26125.1   3401.6   7.4185 26345.6
 02 10 2016  17 29  -15.5085 26124.6   3401.1   7.4176 26345.1
 02 10 2016  17 30  -15.5083 26123.8   3402.0   7.4196 26344.4
 02 10 2016  17 31  -15.5079 26124.0   3402.5   7.4206 26344.6
 02 10 2016  17 32  -15.5085 26124.2   3403.2   7.4221 26344.9
 02 10 2016  17 33  -15.5082 26124.5   3402.5   7.4205 26345.1
 02 10 2016  17 34  -15.5096 26124.3   3403.3   7.4223 26345.1
 02 10 2016  17 35  -15.5102 26124.2   3402.8   7.4212 26344.9
 02 10 2016  17 36  -15.5090 26124.1   3403.7   7.4232 26344.9
 02 10 2016  17 37  -15.5098 26124.1   3403.1   7.4220 26344.8
 02 10 2016  17 38  -15.5102 26124.4   3403.8   7.4233 26345.3
 02 10 2016  17 39  -15.5103 26124.9   3404.8   7.4254 26345.8
 02 10 2016  17 40  -15.5107 26125.6   3405.8   7.4273 26346.7
 02 10 2016  17 41  -15.5098 26126.6   3406.0   7.4274 26347.6
 02 10 2016  17 42  -15.5093 26127.1   3405.1   7.4255 26348.0
 02 10 2016  17 43  -15.5103 26126.9   3405.7   7.4267 26348.0
 02 10 2016  17 44  -15.5102 26126.7   3405.8   7.4270 26347.7
 02 10 2016  17 45  -15.5103 26126.3   3404.3   7.4239 26347.2
 02 10 2016  17 46  -15.5100 26125.6   3404.6   7.4248 26346.5
 02 10 2016  17 47  -15.5098 26125.0   3405.6   7.4272 26346.0
 02 10 2016  17 48  -15.5101 26124.8   3405.0   7.4259 26345.7
 02 10 2016  17 49  -15.5099 26124.8   3406.5   7.4291 26345.9
 02 10 2016  17 50  -15.5103 26124.6   3406.1   7.4283 26345.7
 02 10 2016  17 51  -15.5105 26124.4   3406.4   7.4289 26345.6
 02 10 2016  17 52  -15.5106 26124.2   3407.6   7.4315 26345.5
 02 10 2016  17 53  -15.5119 26123.8   3407.8   7.4322 26345.1
 02 10 2016  17 54  -15.5104 26124.6   3408.2   7.4327 26346.0
 02 10 2016  17 55  -15.5111 26124.7   3408.5   7.4334 26346.1
 02 10 2016  17 56  -15.5112 26124.3   3408.8   7.4341 26345.8
 02 10 2016  17 57  -15.5122 26123.6   3408.0   7.4326 26345.0
 02 10 2016  17 58  -15.5113 26124.0   3408.7   7.4340 26345.4
 02 10 2016  17 59  -15.5099 26124.1   3411.1   7.4393 26345.8
 02 10 2016  18 00  -15.5085 26124.8   3411.1   7.4390 26346.5
 02 10 2016  18 01  -15.5078 26125.4   3411.8   7.4404 26347.3
 02 10 2016  18 02  -15.5082 26126.1   3412.6   7.4418 26348.1
 02 10 2016  18 03  -15.5106 26126.6   3411.2   7.4387 26348.3
 02 10 2016  18 04  -15.5108 26126.4   3411.1   7.4385 26348.2
 02 10 2016  18 05  -15.5105 26125.3   3410.0   7.4365 26346.9
 02 10 2016  18 06  -15.5108 26124.0   3410.2   7.4373 26345.7
 02 10 2016  18 07  -15.5107 26123.2   3409.8   7.4367 26344.8
 02 10 2016  18 08  -15.5092 26123.0   3411.1   7.4395 26344.8
 02 10 2016  18 09  -15.5102 26122.8   3410.5   7.4383 26344.5
 02 10 2016  18 10  -15.5093 26123.0   3411.1   7.4396 26344.8
 02 10 2016  18 11  -15.5094 26122.9   3411.7   7.4407 26344.7
 02 10 2016  18 12  -15.5090 26123.0   3411.4   7.4402 26344.8
 02 10 2016  18 13  -15.5097 26122.1   3411.2   7.4400 26343.9
 02 10 2016  18 14  -15.5087 26121.7   3411.7   7.4411 26343.6
 02 10 2016  18 15  -15.5086 26121.6   3412.5   7.4430 26343.6
 02 10 2016  18 16  -15.5090 26121.9   3412.4   7.4425 26343.8
 02 10 2016  18 17  -15.5090 26122.0   3413.2   7.4444 26344.0
 02 10 2016  18 18  -15.5096 26122.3   3412.6   7.4430 26344.3
 02 10 2016  18 19  -15.5095 26122.5   3414.2   7.4463 26344.7
 02 10 2016  18 20  -15.5091 26122.4   3414.5   7.4470 26344.6
 02 10 2016  18 21  -15.5085 26122.6   3413.7   7.4452 26344.7
 02 10 2016  18 22  -15.5095 26122.3   3413.5   7.4449 26344.3
 02 10 2016  18 23  -15.5085 26122.0   3414.9   7.4480 26344.3
 02 10 2016  18 24  -15.5081 26121.6   3413.4   7.4448 26343.7
 02 10 2016  18 25  -15.5081 26120.9   3414.2   7.4467 26343.1
 02 10 2016  18 26  -15.5080 26120.8   3412.9   7.4440 26342.8
 02 10 2016  18 27  -15.5087 26120.3   3412.7   7.4437 26342.3
 02 10 2016  18 28  -15.5088 26120.0   3412.9   7.4441 26342.0
 02 10 2016  18 29  -15.5090 26119.6   3413.1   7.4447 26341.7
 02 10 2016  18 30  -15.5087 26119.0   3413.6   7.4461 26341.2
 02 10 2016  18 31  -15.5079 26119.0   3415.4   7.4499 26341.4
 02 10 2016  18 32  -15.5073 26119.2   3414.8   7.4486 26341.5
 02 10 2016  18 33  -15.5088 26118.9   3413.7   7.4462 26341.0
 02 10 2016  18 34  -15.5077 26118.9   3415.5   7.4502 26341.2
 02 10 2016  18 35  -15.5069 26119.4   3415.8   7.4506 26341.8
 02 10 2016  18 36  -15.5076 26119.8   3414.4   7.4475 26342.0
 02 10 2016  18 37  -15.5081 26119.8   3414.8   7.4483 26342.1
 02 10 2016  18 38  -15.5071 26120.4   3414.6   7.4479 26342.6
 02 10 2016  18 39  -15.5076 26120.7   3414.9   7.4483 26342.9
 02 10 2016  18 40  -15.5068 26120.7   3417.4   7.4537 26343.3
 02 10 2016  18 41  -15.5072 26120.6   3416.5   7.4518 26343.0
 02 10 2016  18 42  -15.5082 26120.3   3414.6   7.4477 26342.6
 02 10 2016  18 43  -15.5081 26120.1   3415.5   7.4498 26342.5
 02 10 2016  18 44  -15.5072 26120.0   3415.2   7.4492 26342.3
 02 10 2016  18 45  -15.5071 26119.6   3414.9   7.4486 26341.9
 02 10 2016  18 46  -15.5071 26119.8   3414.9   7.4486 26342.0
 02 10 2016  18 47  -15.5078 26119.6   3414.1   7.4469 26341.8
 02 10 2016  18 48  -15.5070 26119.2   3414.1   7.4471 26341.4
 02 10 2016  18 49  -15.5075 26118.9   3413.5   7.4458 26341.0
 02 10 2016  18 50  -15.5076 26118.7   3412.8   7.4443 26340.7
 02 10 2016  18 51  -15.5061 26118.6   3413.8   7.4465 26340.8
 02 10 2016  18 52  -15.5063 26118.7   3413.7   7.4463 26340.8
 02 10 2016  18 53  -15.5069 26118.6   3413.1   7.4451 26340.7
 02 10 2016  18 54  -15.5066 26119.6   3413.1   7.4448 26341.6
 02 10 2016  18 55  -15.5058 26120.0   3413.9   7.4464 26342.1
 02 10 2016  18 56  -15.5059 26119.5   3411.7   7.4419 26341.4
 02 10 2016  18 57  -15.5061 26118.7   3409.9   7.4381 26340.3
 02 10 2016  18 58  -15.5056 26117.9   3411.3   7.4413 26339.8
 02 10 2016  18 59  -15.5073 26117.3   3409.5   7.4376 26338.9
 02 10 2016  19 00  -15.5068 26117.1   3411.1   7.4412 26338.9
 02 10 2016  19 01  -15.5074 26117.0   3409.4   7.4376 26338.6
 02 10 2016  19 02  -15.5083 26116.2   3408.5   7.4359 26337.7
 02 10 2016  19 03  -15.5093 26115.1   3408.4   7.4359 26336.6
 02 10 2016  19 04  -15.5094 26114.5   3407.7   7.4346 26335.9
 02 10 2016  19 05  -15.5091 26114.1   3408.4   7.4361 26335.6
 02 10 2016  19 06  -15.5105 26113.9   3408.1   7.4356 26335.3
 02 10 2016  19 07  -15.5097 26114.0   3408.1   7.4355 26335.5
 02 10 2016  19 08  -15.5104 26114.2   3406.5   7.4321 26335.5
 02 10 2016  19 09  -15.5113 26114.0   3407.2   7.4336 26335.3
 02 10 2016  19 10  -15.5110 26113.9   3408.0   7.4354 26335.3
 02 10 2016  19 11  -15.5120 26113.4   3407.8   7.4351 26334.8
 02 10 2016  19 12  -15.5128 26113.1   3406.1   7.4314 26334.3
 02 10 2016  19 13  -15.5123 26112.9   3405.7   7.4307 26334.1
 02 10 2016  19 14  -15.5127 26112.5   3406.1   7.4317 26333.7
 02 10 2016  19 15  -15.5128 26111.5   3406.3   7.4324 26332.8
 02 10 2016  19 16  -15.5133 26110.3   3405.7   7.4313 26331.4
 02 10 2016  19 17  -15.5136 26108.9   3404.6   7.4295 26330.0
 02 10 2016  19 18  -15.5129 26108.1   3404.6   7.4297 26329.1
 02 10 2016  19 19  -15.5128 26107.1   3404.1   7.4288 26328.1
 02 10 2016  19 20  -15.5128 26106.8   3403.7   7.4282 26327.7
 02 10 2016  19 21  -15.5125 26106.6   3404.4   7.4297 26327.6
 02 10 2016  19 22  -15.5128 26105.9   3404.6   7.4304 26327.0
 02 10 2016  19 23  -15.5132 26105.9   3403.5   7.4280 26326.9
 02 10 2016  19 24  -15.5126 26105.6   3404.4   7.4300 26326.7
 02 10 2016  19 25  -15.5137 26105.1   3403.7   7.4286 26326.1
 02 10 2016  19 26  -15.5138 26104.7   3402.9   7.4270 26325.5
 02 10 2016  19 27  -15.5141 26104.4   3403.8   7.4290 26325.3
 02 10 2016  19 28  -15.5143 26104.4   3403.3   7.4280 26325.4
 02 10 2016  19 29  -15.5138 26104.2   3404.0   7.4296 26325.2
 02 10 2016  19 30  -15.5146 26104.2   3404.2   7.4298 26325.2
 02 10 2016  19 31  -15.5146 26104.1   3403.1   7.4276 26325.0
 02 10 2016  19 32  -15.5144 26103.3   3404.8   7.4314 26324.4
 02 10 2016  19 33  -15.5148 26102.9   3402.4   7.4264 26323.7
 02 10 2016  19 34  -15.5142 26102.1   3402.6   7.4270 26323.0
 02 10 2016  19 35  -15.5136 26101.3   3403.5   7.4292 26322.3
 02 10 2016  19 36  -15.5130 26100.9   3403.5   7.4293 26321.9
 02 10 2016  19 37  -15.5129 26100.6   3403.7   7.4298 26321.6
 02 10 2016  19 38  -15.5135 26100.6   3403.7   7.4299 26321.6
 02 10 2016  19 39  -15.5125 26100.5   3404.5   7.4316 26321.6
 02 10 2016  19 40  -15.5133 26099.5   3404.4   7.4316 26320.6
 02 10 2016  19 41  -15.5122 26099.1   3404.6   7.4321 26320.3
 02 10 2016  19 42  -15.5124 26098.3   3403.9   7.4310 26319.3
 02 10 2016  19 43  -15.5122 26097.3   3403.7   7.4308 26318.4
 02 10 2016  19 44  -15.5119 26096.4   3404.4   7.4326 26317.5
 02 10 2016  19 45  -15.5122 26095.8   3403.9   7.4316 26316.8
 02 10 2016  19 46  -15.5127 26095.1   3404.3   7.4327 26316.2
 02 10 2016  19 47  -15.5106 26095.0   3405.0   7.4343 26316.2
 02 10 2016  19 48  -15.5112 26094.6   3403.6   7.4314 26315.6
 02 10 2016  19 49  -15.5105 26094.1   3404.5   7.4334 26315.3
 02 10 2016  19 50  -15.5107 26093.7   3404.6   7.4338 26314.9
 02 10 2016  19 51  -15.5096 26093.6   3405.7   7.4362 26314.9
 02 10 2016  19 52  -15.5095 26093.6   3405.7   7.4361 26314.9
 02 10 2016  19 53  -15.5101 26092.7   3405.1   7.4352 26313.9
 02 10 2016  19 54  -15.5083 26092.3   3406.3   7.4377 26313.8
 02 10 2016  19 55  -15.5083 26091.8   3406.2   7.4377 26313.2
 02 10 2016  19 56  -15.5082 26092.4   3405.7   7.4364 26313.7
 02 10 2016  19 57  -15.5083 26092.6   3405.4   7.4359 26313.9
 02 10 2016  19 58  -15.5080 26092.1   3405.5   7.4361 26313.4
 02 10 2016  19 59  -15.5083 26091.8   3404.7   7.4345 26313.0
 02 10 2016  20 00  -15.5079 26091.5   3404.9   7.4350 26312.8
 02 10 2016  20 01  -15.5085 26090.5   3403.6   7.4325 26311.6
 02 10 2016  20 02  -15.5082 26088.9   3404.4   7.4347 26310.1
 02 10 2016  20 03  -15.5079 26088.0   3402.8   7.4314 26309.0
 02 10 2016  20 04  -15.5086 26087.0   3402.4   7.4308 26308.0
 02 10 2016  20 05  -15.5091 26085.8   3403.8   7.4341 26306.9
 02 10 2016  20 06  -15.5108 26085.3   3402.5   7.4315 26306.3
 02 10 2016  20 07  -15.5110 26084.2   3402.7   7.4323 26305.3
 02 10 2016  20 08  -15.5118 26083.2   3401.4   7.4299 26304.0
 02 10 2016  20 09  -15.5125 26081.4   3401.8   7.4311 26302.3
 02 10 2016  20 10  -15.5128 26079.2   3400.8   7.4295 26300.0
 02 10 2016  20 11  -15.5134 26077.9   3401.9   7.4324 26298.8
 02 10 2016  20 12  -15.5118 26077.0   3403.0   7.4351 26298.1
 02 10 2016  20 13  -15.5130 26075.4   3403.6   7.4367 26296.6
 02 10 2016  20 14  -15.5134 26075.3   3402.8   7.4351 26296.3
 02 10 2016  20 15  -15.5148 26074.5   3402.3   7.4341 26295.6
 02 10 2016  20 16  -15.5141 26074.8   3402.0   7.4334 26295.7
 02 10 2016  20 17  -15.5156 26075.0   3402.0   7.4334 26296.0
 02 10 2016  20 18  -15.5153 26075.2   3404.1   7.4378 26296.4
 02 10 2016  20 19  -15.5156 26075.2   3402.8   7.4350 26296.3
 02 10 2016  20 20  -15.5168 26075.4   3402.7   7.4348 26296.5
 02 10 2016  20 21  -15.5167 26077.2   3403.0   7.4349 26298.3
 02 10 2016  20 22  -15.5171 26078.0   3403.6   7.4359 26299.2
 02 10 2016  20 23  -15.5178 26078.5   3403.2   7.4349 26299.6
 02 10 2016  20 24  -15.5186 26078.8   3403.1   7.4347 26299.9
 02 10 2016  20 25  -15.5194 26079.3   3402.9   7.4342 26300.3
 02 10 2016  20 26  -15.5199 26079.9   3403.1   7.4344 26301.0
 02 10 2016  20 27  -15.5203 26080.3   3402.6   7.4332 26301.4
 02 10 2016  20 28  -15.5213 26080.4   3402.0   7.4319 26301.3
 02 10 2016  20 29  -15.5219 26080.6   3402.0   7.4318 26301.6
 02 10 2016  20 30  -15.5221 26080.7   3401.1   7.4297 26301.5
 02 10 2016  20 31  -15.5222 26080.2   3401.3   7.4304 26301.1
 02 10 2016  20 32  -15.5227 26080.4   3399.9   7.4273 26301.1
 02 10 2016  20 33  -15.5232 26080.0   3401.2   7.4302 26300.8
 02 10 2016  20 34  -15.5228 26079.5   3399.9   7.4277 26300.2
 02 10 2016  20 35  -15.5225 26079.1   3401.7   7.4316 26300.0
 02 10 2016  20 36  -15.5225 26079.5   3400.3   7.4285 26300.3
 02 10 2016  20 37  -15.5225 26079.5   3401.1   7.4301 26300.4
 02 10 2016  20 38  -15.5227 26079.0   3400.6   7.4291 26299.8
 02 10 2016  20 39  -15.5224 26078.7   3400.9   7.4298 26299.5
 02 10 2016  20 40  -15.5222 26078.7   3400.3   7.4286 26299.4
 02 10 2016  20 41  -15.5224 26078.6   3400.4   7.4289 26299.3
 02 10 2016  20 42  -15.5222 26078.5   3400.6   7.4295 26299.3
 02 10 2016  20 43  -15.5223 26078.4   3400.4   7.4290 26299.2
 02 10 2016  20 44  -15.5222 26078.3   3400.4   7.4289 26299.0
 02 10 2016  20 45  -15.5220 26078.3   3400.5   7.4292 26299.1
 02 10 2016  20 46  -15.5219 26078.2   3400.5   7.4291 26298.9
 02 10 2016  20 47  -15.5215 26078.3   3400.8   7.4299 26299.1
 02 10 2016  20 48  -15.5208 26078.6   3401.2   7.4307 26299.5
 02 10 2016  20 49  -15.5201 26079.0   3400.9   7.4298 26299.8
 02 10 2016  20 50  -15.5214 26078.7   3401.0   7.4302 26299.6
 02 10 2016  20 51  -15.5209 26079.0   3400.8   7.4296 26299.8
 02 10 2016  20 52  -15.5200 26079.3   3401.8   7.4318 26300.3
 02 10 2016  20 53  -15.5188 26080.2   3402.2   7.4324 26301.1
 02 10 2016  20 54  -15.5193 26080.7   3401.8   7.4314 26301.6
 02 10 2016  20 55  -15.5194 26081.2   3401.9   7.4314 26302.1
 02 10 2016  20 56  -15.5198 26081.6   3401.7   7.4309 26302.5
 02 10 2016  20 57  -15.5203 26082.2   3401.8   7.4308 26303.1
 02 10 2016  20 58  -15.5203 26083.1   3401.8   7.4306 26304.0
 02 10 2016  20 59  -15.5203 26083.9   3402.4   7.4317 26304.9
 02 10 2016  21 00  -15.5212 26084.3   3402.5   7.4319 26305.3
 02 10 2016  21 01  -15.5208 26085.2   3402.4   7.4313 26306.2
 02 10 2016  21 02  -15.5207 26085.9   3402.5   7.4314 26306.9
 02 10 2016  21 03  -15.5214 26086.3   3402.4   7.4311 26307.3
 02 10 2016  21 04  -15.5223 26086.6   3402.1   7.4304 26307.6
 02 10 2016  21 05  -15.5214 26087.4   3402.0   7.4300 26308.3
 02 10 2016  21 06  -15.5209 26087.9   3402.1   7.4299 26308.8
 02 10 2016  21 07  -15.5217 26088.1   3401.8   7.4292 26309.0
 02 10 2016  21 08  -15.5212 26088.7   3402.2   7.4299 26309.6
 02 10 2016  21 09  -15.5213 26089.3   3401.9   7.4291 26310.2
 02 10 2016  21 10  -15.5207 26090.0   3402.0   7.4292 26310.8
 02 10 2016  21 11  -15.5212 26090.0   3401.9   7.4290 26310.9
 02 10 2016  21 12  -15.5211 26090.0   3401.5   7.4280 26310.8
 02 10 2016  21 13  -15.5211 26089.8   3401.4   7.4280 26310.6
 02 10 2016  21 14  -15.5212 26089.9   3401.1   7.4272 26310.7
 02 10 2016  21 15  -15.5212 26089.8   3401.0   7.4271 26310.6
 02 10 2016  21 16  -15.5214 26090.0   3400.8   7.4266 26310.7
 02 10 2016  21 17  -15.5210 26090.3   3401.1   7.4272 26311.0
 02 10 2016  21 18  -15.5215 26090.4   3401.3   7.4274 26311.2
 02 10 2016  21 19  -15.5211 26090.8   3401.0   7.4268 26311.5
 02 10 2016  21 20  -15.5211 26091.0   3400.9   7.4266 26311.8
 02 10 2016  21 21  -15.5212 26091.1   3400.9   7.4266 26311.8
 02 10 2016  21 22  -15.5212 26091.3   3401.0   7.4267 26312.0
 02 10 2016  21 23  -15.5213 26091.7   3400.4   7.4252 26312.3
 02 10 2016  21 24  -15.5209 26092.2   3400.7   7.4257 26312.9
 02 10 2016  21 25  -15.5209 26092.6   3401.0   7.4262 26313.3
 02 10 2016  21 26  -15.5203 26093.0   3401.4   7.4271 26313.7
 02 10 2016  21 27  -15.5202 26093.4   3401.2   7.4266 26314.1
 02 10 2016  21 28  -15.5199 26093.6   3401.1   7.4262 26314.3
 02 10 2016  21 29  -15.5198 26093.9   3401.2   7.4263 26314.6
 02 10 2016  21 30  -15.5197 26094.3   3401.2   7.4261 26315.1
 02 10 2016  21 31  -15.5195 26094.4   3401.0   7.4258 26315.1
 02 10 2016  21 32  -15.5194 26094.7   3400.9   7.4255 26315.4
 02 10 2016  21 33  -15.5192 26095.0   3401.1   7.4258 26315.7
 02 10 2016  21 34  -15.5189 26095.5   3401.1   7.4257 26316.2
 02 10 2016  21 35  -15.5188 26095.9   3401.1   7.4255 26316.6
 02 10 2016  21 36  -15.5187 26096.5   3401.3   7.4257 26317.2
 02 10 2016  21 37  -15.5185 26097.1   3401.3   7.4256 26317.8
 02 10 2016  21 38  -15.5184 26097.7   3400.8   7.4244 26318.3
 02 10 2016  21 39  -15.5193 26097.7   3400.5   7.4238 26318.3
 02 10 2016  21 40  -15.5180 26098.3   3401.4   7.4255 26319.0
 02 10 2016  21 41  -15.5183 26098.9   3400.3   7.4230 26319.5
 02 10 2016  21 42  -15.5184 26099.3   3401.4   7.4252 26320.0
 02 10 2016  21 43  -15.5171 26100.0   3401.9   7.4262 26320.8
 02 10 2016  21 44  -15.5186 26099.9   3401.7   7.4258 26320.6
 02 10 2016  21 45  -15.5179 26100.4   3400.4   7.4228 26321.0
 02 10 2016  21 46  -15.5192 26100.2   3400.1   7.4222 26320.7
 02 10 2016  21 47  -15.5194 26100.3   3399.4   7.4207 26320.8
 02 10 2016  21 48  -15.5184 26100.6   3399.5   7.4208 26321.1
 02 10 2016  21 49  -15.5192 26100.6   3399.0   7.4197 26320.9
 02 10 2016  21 50  -15.5185 26100.8   3399.6   7.4209 26321.3
 02 10 2016  21 51  -15.5196 26100.5   3401.4   7.4248 26321.2
 02 10 2016  21 52  -15.5189 26100.6   3401.8   7.4258 26321.4
 02 10 2016  21 53  -15.5192 26101.0   3400.0   7.4217 26321.5
 02 10 2016  21 54  -15.5209 26100.3   3400.4   7.4227 26320.9
 02 10 2016  21 55  -15.5212 26100.2   3399.0   7.4198 26320.6
 02 10 2016  21 56  -15.5216 26099.6   3399.8   7.4217 26320.1
 02 10 2016  21 57  -15.5202 26100.0   3401.4   7.4251 26320.7
 02 10 2016  21 58  -15.5191 26100.8   3401.7   7.4254 26321.5
 02 10 2016  21 59  -15.5189 26101.3   3401.1   7.4241 26321.9
 02 10 2016  22 00  -15.5189 26101.6   3401.9   7.4257 26322.4
 02 10 2016  22 01  -15.5191 26102.1   3401.5   7.4246 26322.7
 02 10 2016  22 02  -15.5195 26102.5   3401.9   7.4255 26323.2
 02 10 2016  22 03  -15.5204 26102.4   3402.6   7.4270 26323.3
 02 10 2016  22 04  -15.5198 26103.2   3401.4   7.4242 26323.9
 02 10 2016  22 05  -15.5189 26103.6   3403.2   7.4280 26324.5
 02 10 2016  22 06  -15.5204 26103.8   3403.1   7.4276 26324.7
 02 10 2016  22 07  -15.5189 26104.4   3403.1   7.4274 26325.3
 02 10 2016  22 08  -15.5204 26104.4   3401.8   7.4247 26325.2
 02 10 2016  22 09  -15.5200 26104.5   3402.2   7.4255 26325.3
 02 10 2016  22 10  -15.5196 26105.0   3402.2   7.4254 26325.7
 02 10 2016  22 11  -15.5200 26105.0   3402.1   7.4252 26325.8
 02 10 2016  22 12  -15.5199 26105.6   3401.5   7.4237 26326.2
 02 10 2016  22 13  -15.5195 26105.9   3403.0   7.4268 26326.7
 02 10 2016  22 14  -15.5199 26106.5   3401.5   7.4235 26327.1
 02 10 2016  22 15  -15.5185 26106.9   3401.9   7.4242 26327.7
 02 10 2016  22 16  -15.5175 26106.7   3403.7   7.4281 26327.7
 02 10 2016  22 17  -15.5179 26106.3   3403.4   7.4277 26327.3
 02 10 2016  22 18  -15.5186 26106.1   3400.8   7.4221 26326.7
 02 10 2016  22 19  -15.5164 26106.3   3402.0   7.4246 26327.0
 02 10 2016  22 20  -15.5166 26106.1   3402.7   7.4261 26326.9
 02 10 2016  22 21  -15.5182 26106.2   3401.0   7.4225 26326.8
 02 10 2016  22 22  -15.5177 26106.0   3402.9   7.4266 26326.8
 02 10 2016  22 23  -15.5165 26106.7   3401.8   7.4240 26327.4
 02 10 2016  22 24  -15.5161 26106.9   3403.1   7.4267 26327.7
 02 10 2016  22 25  -15.5168 26107.0   3401.0   7.4223 26327.6
 02 10 2016  22 26  -15.5161 26106.9   3402.6   7.4257 26327.7
 02 10 2016  22 27  -15.5158 26107.1   3402.9   7.4263 26327.9
 02 10 2016  22 28  -15.5160 26107.1   3403.3   7.4271 26328.0
 02 10 2016  22 29  -15.5160 26107.2   3403.0   7.4264 26328.0
 02 10 2016  22 30  -15.5166 26107.1   3402.9   7.4262 26327.9
 02 10 2016  22 31  -15.5165 26107.3   3401.8   7.4240 26328.0
 02 10 2016  22 32  -15.5155 26107.8   3401.8   7.4237 26328.5
 02 10 2016  22 33  -15.5149 26108.2   3401.9   7.4238 26328.9
 02 10 2016  22 34  -15.5157 26107.9   3403.1   7.4264 26328.8
 02 10 2016  22 35  -15.5159 26108.4   3400.8   7.4214 26328.9
 02 10 2016  22 36  -15.5162 26108.1   3401.9   7.4239 26328.8
 02 10 2016  22 37  -15.5161 26108.4   3400.5   7.4207 26328.9
 02 10 2016  22 38  -15.5161 26108.0   3402.9   7.4260 26328.9
 02 10 2016  22 39  -15.5166 26108.3   3401.1   7.4220 26328.9
 02 10 2016  22 40  -15.5163 26108.2   3401.7   7.4233 26328.9
 02 10 2016  22 41  -15.5164 26108.2   3401.7   7.4234 26328.9
 02 10 2016  22 42  -15.5165 26108.0   3401.8   7.4236 26328.7
 02 10 2016  22 43  -15.5161 26108.2   3401.7   7.4233 26328.8
 02 10 2016  22 44  -15.5167 26108.0   3401.3   7.4227 26328.6
 02 10 2016  22 45  -15.5168 26107.8   3401.3   7.4227 26328.5
 02 10 2016  22 46  -15.5159 26108.1   3400.5   7.4209 26328.6
 02 10 2016  22 47  -15.5172 26107.4   3401.2   7.4224 26328.0
 02 10 2016  22 48  -15.5170 26107.4   3401.5   7.4231 26328.0
 02 10 2016  22 49  -15.5167 26107.4   3401.0   7.4221 26328.0
 02 10 2016  22 50  -15.5165 26107.2   3401.9   7.4241 26327.9
 02 10 2016  22 51  -15.5160 26107.3   3402.1   7.4245 26328.0
 02 10 2016  22 52  -15.5167 26107.3   3401.2   7.4226 26327.9
 02 10 2016  22 53  -15.5167 26107.1   3401.5   7.4233 26327.7
 02 10 2016  22 54  -15.5154 26107.3   3401.3   7.4227 26327.9
 02 10 2016  22 55  -15.5154 26106.9   3402.1   7.4247 26327.7
 02 10 2016  22 56  -15.5157 26106.7   3401.3   7.4228 26327.3
 02 10 2016  22 57  -15.5156 26106.4   3400.9   7.4222 26326.9
 02 10 2016  22 58  -15.5150 26106.2   3400.7   7.4219 26326.7
 02 10 2016  22 59  -15.5149 26106.0   3400.9   7.4224 26326.6
 02 10 2016  23 00  -15.5150 26105.8   3401.0   7.4226 26326.4
 02 10 2016  23 01  -15.5151 26105.7   3400.7   7.4219 26326.3
 02 10 2016  23 02  -15.5150 26105.7   3400.6   7.4217 26326.2
 02 10 2016  23 03  -15.5153 26105.6   3400.0   7.4204 26326.1
 02 10 2016  23 04  -15.5146 26105.6   3400.6   7.4217 26326.2
 02 10 2016  23 05  -15.5159 26105.0   3401.2   7.4232 26325.7
 02 10 2016  23 06  -15.5152 26105.2   3400.3   7.4212 26325.7
 02 10 2016  23 07  -15.5170 26104.9   3398.9   7.4183 26325.3
 02 10 2016  23 08  -15.5160 26104.8   3401.0   7.4227 26325.4
 02 10 2016  23 09  -15.5163 26104.5   3402.1   7.4253 26325.3
 02 10 2016  23 10  -15.5168 26104.7   3399.3   7.4191 26325.1
 02 10 2016  23 11  -15.5170 26104.6   3399.2   7.4189 26325.0
 02 10 2016  23 12  -15.5170 26104.5   3399.4   7.4195 26324.9
 02 10 2016  23 13  -15.5168 26104.1   3400.9   7.4227 26324.7
 02 10 2016  23 14  -15.5164 26104.2   3400.2   7.4212 26324.7
 02 10 2016  23 15  -15.5171 26103.8   3400.0   7.4210 26324.3
 02 10 2016  23 16  -15.5162 26103.7   3400.8   7.4228 26324.3
 02 10 2016  23 17  -15.5173 26103.4   3400.8   7.4229 26324.0
 02 10 2016  23 18  -15.5162 26104.1   3400.2   7.4214 26324.6
 02 10 2016  23 19  -15.5176 26103.7   3399.8   7.4206 26324.2
 02 10 2016  23 20  -15.5179 26103.5   3401.2   7.4237 26324.1
 02 10 2016  23 21  -15.5170 26104.1   3400.7   7.4224 26324.7
 02 10 2016  23 22  -15.5176 26103.8   3400.7   7.4224 26324.4
 02 10 2016  23 23  -15.5167 26103.7   3401.7   7.4247 26324.4
 02 10 2016  23 24  -15.5165 26103.9   3401.4   7.4239 26324.5
 02 10 2016  23 25  -15.5172 26103.8   3402.1   7.4255 26324.5
 02 10 2016  23 26  -15.5174 26104.2   3399.9   7.4205 26324.6
 02 10 2016  23 27  -15.5172 26103.9   3401.6   7.4245 26324.6
 02 10 2016  23 28  -15.5168 26104.0   3401.2   7.4234 26324.7
 02 10 2016  23 29  -15.5169 26103.7   3401.9   7.4250 26324.5
 02 10 2016  23 30  -15.5172 26103.8   3400.7   7.4224 26324.4
 02 10 2016  23 31  -15.5167 26103.8   3401.1   7.4233 26324.4
 02 10 2016  23 32  -15.5180 26103.2   3401.5   7.4243 26323.9
 02 10 2016  23 33  -15.5166 26103.5   3400.2   7.4215 26324.1
 02 10 2016  23 34  -15.5176 26102.9   3401.6   7.4247 26323.6
 02 10 2016  23 35  -15.5170 26103.0   3401.5   7.4244 26323.7
 02 10 2016  23 36  -15.5174 26103.4   3399.8   7.4207 26323.8
 02 10 2016  23 37  -15.5170 26103.5   3400.5   7.4221 26324.0
 02 10 2016  23 38  -15.5171 26103.5   3401.1   7.4234 26324.1
 02 10 2016  23 39  -15.5163 26103.7   3402.6   7.4266 26324.5
 02 10 2016  23 40  -15.5180 26103.6   3400.7   7.4225 26324.2
 02 10 2016  23 41  -15.5177 26103.8   3402.3   7.4258 26324.6
 02 10 2016  23 42  -15.5166 26104.8   3401.4   7.4237 26325.4
 02 10 2016  23 43  -15.5161 26105.0   3401.6   7.4241 26325.7
 02 10 2016  23 44  -15.5158 26105.3   3403.6   7.4283 26326.2
 02 10 2016  23 45  -15.5149 26105.8   3402.5   7.4258 26326.6
 02 10 2016  23 46  -15.5147 26105.9   3402.9   7.4266 26326.7
 02 10 2016  23 47  -15.5148 26106.2   3402.5   7.4256 26327.0
 02 10 2016  23 48  -15.5158 26106.3   3400.9   7.4221 26326.9
 02 10 2016  23 49  -15.5169 26106.0   3401.7   7.4239 26326.7
 02 10 2016  23 50  -15.5164 26106.5   3400.7   7.4217 26327.0
 02 10 2016  23 51  -15.5156 26106.4   3403.8   7.4284 26327.4
 02 10 2016  23 52  -15.5155 26106.9   3401.9   7.4242 26327.6
 02 10 2016  23 53  -15.5151 26107.1   3402.7   7.4259 26328.0
 02 10 2016  23 54  -15.5157 26107.2   3402.7   7.4258 26328.0
 02 10 2016  23 55  -15.5161 26107.4   3403.3   7.4271 26328.3
 02 10 2016  23 56  -15.5162 26107.9   3401.6   7.4232 26328.6
 02 10 2016  23 57  -15.5162 26108.1   3401.6   7.4233 26328.8
 02 10 2016  23 58  -15.5162 26107.8   3402.6   7.4255 26328.6
 02 10 2016  23 59  -15.5165 26108.0   3402.0   7.4242 26328.7
