Manaus - AM                    UNIVAP-03  <245> 1 Min. Reported data

 DD MM YYYY  HH MM   D(Deg)  H(nT)   Z(nT)   I(Deg)   F(nT)

 01 09 2016  00 00  -15.5148 26125.2   3424.0   7.4667 26348.6
 01 09 2016  00 01  -15.5152 26125.2   3425.2   7.4693 26348.8
 01 09 2016  00 02  -15.5149 26125.4   3425.6   7.4700 26349.1
 01 09 2016  00 03  -15.5155 26125.6   3424.4   7.4674 26349.1
 01 09 2016  00 04  -15.5160 26125.5   3424.8   7.4684 26349.0
 01 09 2016  00 05  -15.5153 26125.9   3425.2   7.4691 26349.5
 01 09 2016  00 06  -15.5143 26126.6   3424.6   7.4675 26350.0
 01 09 2016  00 07  -15.5145 26126.5   3425.6   7.4697 26350.2
 01 09 2016  00 08  -15.5147 26126.5   3424.5   7.4675 26350.0
 01 09 2016  00 09  -15.5142 26126.5   3424.4   7.4673 26350.0
 01 09 2016  00 10  -15.5136 26126.5   3424.4   7.4671 26349.9
 01 09 2016  00 11  -15.5138 26126.4   3423.8   7.4659 26349.8
 01 09 2016  00 12  -15.5137 26126.3   3423.8   7.4660 26349.7
 01 09 2016  00 13  -15.5134 26126.2   3423.0   7.4643 26349.5
 01 09 2016  00 14  -15.5135 26125.6   3424.0   7.4666 26349.0
 01 09 2016  00 15  -15.5143 26125.2   3423.6   7.4659 26348.6
 01 09 2016  00 16  -15.5137 26125.1   3424.4   7.4675 26348.6
 01 09 2016  00 17  -15.5127 26125.1   3424.5   7.4678 26348.6
 01 09 2016  00 18  -15.5141 26124.4   3423.8   7.4664 26347.8
 01 09 2016  00 19  -15.5136 26124.4   3422.2   7.4631 26347.6
 01 09 2016  00 20  -15.5140 26123.8   3423.4   7.4659 26347.2
 01 09 2016  00 21  -15.5141 26123.5   3423.4   7.4659 26346.9
 01 09 2016  00 22  -15.5147 26123.2   3423.5   7.4663 26346.6
 01 09 2016  00 23  -15.5146 26123.1   3422.8   7.4648 26346.4
 01 09 2016  00 24  -15.5147 26122.9   3422.7   7.4645 26346.1
 01 09 2016  00 25  -15.5146 26122.7   3423.1   7.4654 26346.1
 01 09 2016  00 26  -15.5145 26122.4   3424.2   7.4679 26345.9
 01 09 2016  00 27  -15.5150 26122.1   3423.6   7.4668 26345.5
 01 09 2016  00 28  -15.5151 26121.8   3423.7   7.4671 26345.3
 01 09 2016  00 29  -15.5145 26121.9   3423.6   7.4668 26345.3
 01 09 2016  00 30  -15.5156 26121.5   3423.1   7.4657 26344.8
 01 09 2016  00 31  -15.5143 26121.5   3423.9   7.4676 26345.0
 01 09 2016  00 32  -15.5146 26121.5   3423.6   7.4669 26344.9
 01 09 2016  00 33  -15.5155 26121.4   3423.0   7.4656 26344.7
 01 09 2016  00 34  -15.5156 26121.3   3423.0   7.4656 26344.6
 01 09 2016  00 35  -15.5158 26121.1   3423.9   7.4675 26344.6
 01 09 2016  00 36  -15.5160 26121.0   3423.6   7.4671 26344.4
 01 09 2016  00 37  -15.5162 26120.8   3423.6   7.4671 26344.2
 01 09 2016  00 38  -15.5168 26120.6   3423.2   7.4664 26344.0
 01 09 2016  00 39  -15.5165 26120.5   3423.5   7.4669 26343.9
 01 09 2016  00 40  -15.5164 26120.7   3423.1   7.4660 26344.0
 01 09 2016  00 41  -15.5162 26120.7   3423.3   7.4664 26344.0
 01 09 2016  00 42  -15.5158 26120.8   3423.3   7.4664 26344.2
 01 09 2016  00 43  -15.5157 26120.7   3423.7   7.4673 26344.2
 01 09 2016  00 44  -15.5159 26121.0   3423.1   7.4660 26344.4
 01 09 2016  00 45  -15.5161 26121.1   3423.4   7.4666 26344.4
 01 09 2016  00 46  -15.5162 26121.0   3423.2   7.4661 26344.4
 01 09 2016  00 47  -15.5164 26120.9   3423.8   7.4675 26344.3
 01 09 2016  00 48  -15.5167 26121.0   3423.0   7.4657 26344.4
 01 09 2016  00 49  -15.5168 26121.2   3424.1   7.4681 26344.6
 01 09 2016  00 50  -15.5172 26121.3   3423.5   7.4668 26344.7
 01 09 2016  00 51  -15.5166 26121.6   3424.4   7.4685 26345.1
 01 09 2016  00 52  -15.5179 26121.6   3423.5   7.4666 26345.0
 01 09 2016  00 53  -15.5171 26122.0   3423.7   7.4669 26345.4
 01 09 2016  00 54  -15.5172 26121.9   3424.3   7.4683 26345.4
 01 09 2016  00 55  -15.5177 26122.0   3423.7   7.4670 26345.4
 01 09 2016  00 56  -15.5179 26121.8   3423.8   7.4673 26345.2
 01 09 2016  00 57  -15.5181 26121.8   3422.8   7.4651 26345.1
 01 09 2016  00 58  -15.5183 26121.6   3423.6   7.4668 26345.0
 01 09 2016  00 59  -15.5184 26121.8   3422.6   7.4647 26345.1
 01 09 2016  01 00  -15.5187 26121.6   3424.1   7.4680 26345.1
 01 09 2016  01 01  -15.5197 26121.3   3423.0   7.4656 26344.7
 01 09 2016  01 02  -15.5189 26121.4   3422.6   7.4647 26344.6
 01 09 2016  01 03  -15.5185 26121.2   3423.1   7.4659 26344.5
 01 09 2016  01 04  -15.5182 26121.1   3423.0   7.4658 26344.4
 01 09 2016  01 05  -15.5193 26120.7   3422.5   7.4647 26344.0
 01 09 2016  01 06  -15.5190 26120.8   3422.6   7.4650 26344.1
 01 09 2016  01 07  -15.5181 26120.7   3423.4   7.4667 26344.1
 01 09 2016  01 08  -15.5188 26120.3   3422.7   7.4653 26343.6
 01 09 2016  01 09  -15.5190 26119.7   3423.2   7.4665 26343.1
 01 09 2016  01 10  -15.5186 26119.3   3423.2   7.4666 26342.6
 01 09 2016  01 11  -15.5176 26119.1   3423.1   7.4665 26342.5
 01 09 2016  01 12  -15.5175 26118.9   3423.9   7.4683 26342.3
 01 09 2016  01 13  -15.5185 26118.7   3423.3   7.4671 26342.1
 01 09 2016  01 14  -15.5176 26118.9   3422.2   7.4646 26342.2
 01 09 2016  01 15  -15.5181 26118.5   3423.6   7.4678 26341.9
 01 09 2016  01 16  -15.5175 26118.5   3423.1   7.4667 26341.8
 01 09 2016  01 17  -15.5172 26118.5   3423.1   7.4666 26341.9
 01 09 2016  01 18  -15.5171 26118.3   3423.2   7.4668 26341.7
 01 09 2016  01 19  -15.5171 26118.3   3423.1   7.4666 26341.7
 01 09 2016  01 20  -15.5169 26118.1   3423.2   7.4669 26341.5
 01 09 2016  01 21  -15.5170 26117.9   3423.0   7.4666 26341.2
 01 09 2016  01 22  -15.5171 26117.8   3422.8   7.4663 26341.1
 01 09 2016  01 23  -15.5173 26117.6   3422.8   7.4662 26340.9
 01 09 2016  01 24  -15.5175 26117.8   3422.8   7.4663 26341.1
 01 09 2016  01 25  -15.5185 26117.8   3423.2   7.4670 26341.2
 01 09 2016  01 26  -15.5190 26117.9   3422.4   7.4654 26341.2
 01 09 2016  01 27  -15.5196 26118.0   3422.9   7.4664 26341.3
 01 09 2016  01 28  -15.5202 26117.9   3422.9   7.4664 26341.2
 01 09 2016  01 29  -15.5205 26118.0   3423.2   7.4670 26341.3
 01 09 2016  01 30  -15.5201 26118.4   3423.1   7.4667 26341.8
 01 09 2016  01 31  -15.5204 26118.4   3423.4   7.4674 26341.8
 01 09 2016  01 32  -15.5204 26118.9   3423.5   7.4674 26342.3
 01 09 2016  01 33  -15.5201 26119.1   3423.3   7.4670 26342.4
 01 09 2016  01 34  -15.5193 26119.0   3423.3   7.4670 26342.3
 01 09 2016  01 35  -15.5190 26118.8   3423.4   7.4671 26342.2
 01 09 2016  01 36  -15.5179 26119.3   3423.5   7.4673 26342.7
 01 09 2016  01 37  -15.5174 26119.2   3423.4   7.4671 26342.6
 01 09 2016  01 38  -15.5168 26119.7   3423.5   7.4672 26343.1
 01 09 2016  01 39  -15.5158 26120.0   3423.8   7.4678 26343.4
 01 09 2016  01 40  -15.5153 26120.1   3423.5   7.4670 26343.5
 01 09 2016  01 41  -15.5150 26120.0   3423.3   7.4667 26343.4
 01 09 2016  01 42  -15.5147 26120.0   3423.0   7.4660 26343.4
 01 09 2016  01 43  -15.5146 26120.3   3423.1   7.4662 26343.7
 01 09 2016  01 44  -15.5142 26121.2   3423.3   7.4662 26344.6
 01 09 2016  01 45  -15.5140 26121.6   3423.7   7.4671 26345.0
 01 09 2016  01 46  -15.5140 26122.3   3423.2   7.4657 26345.6
 01 09 2016  01 47  -15.5138 26123.0   3423.2   7.4655 26346.3
 01 09 2016  01 48  -15.5143 26123.5   3423.5   7.4661 26346.9
 01 09 2016  01 49  -15.5140 26124.4   3424.4   7.4679 26347.9
 01 09 2016  01 50  -15.5142 26125.1   3423.9   7.4665 26348.5
 01 09 2016  01 51  -15.5144 26125.8   3424.2   7.4669 26349.2
 01 09 2016  01 52  -15.5147 26126.2   3424.0   7.4665 26349.6
 01 09 2016  01 53  -15.5138 26126.9   3423.7   7.4655 26350.3
 01 09 2016  01 54  -15.5144 26127.4   3423.3   7.4645 26350.7
 01 09 2016  01 55  -15.5141 26127.9   3423.8   7.4655 26351.3
 01 09 2016  01 56  -15.5144 26128.5   3423.5   7.4647 26351.8
 01 09 2016  01 57  -15.5144 26128.8   3423.0   7.4634 26352.0
 01 09 2016  01 58  -15.5146 26129.1   3423.2   7.4639 26352.4
 01 09 2016  01 59  -15.5150 26129.9   3423.1   7.4634 26353.2
 01 09 2016  02 00  -15.5149 26130.3   3423.0   7.4631 26353.6
 01 09 2016  02 01  -15.5159 26130.3   3422.6   7.4623 26353.5
 01 09 2016  02 02  -15.5165 26130.4   3422.8   7.4626 26353.7
 01 09 2016  02 03  -15.5170 26130.8   3422.1   7.4610 26353.9
 01 09 2016  02 04  -15.5176 26130.9   3422.8   7.4624 26354.1
 01 09 2016  02 05  -15.5176 26131.5   3422.8   7.4624 26354.7
 01 09 2016  02 06  -15.5176 26132.0   3422.9   7.4625 26355.2
 01 09 2016  02 07  -15.5184 26132.3   3423.0   7.4626 26355.5
 01 09 2016  02 08  -15.5190 26132.8   3422.8   7.4620 26356.0
 01 09 2016  02 09  -15.5192 26133.3   3422.5   7.4612 26356.4
 01 09 2016  02 10  -15.5190 26133.9   3423.2   7.4626 26357.2
 01 09 2016  02 11  -15.5188 26134.7   3423.1   7.4621 26358.0
 01 09 2016  02 12  -15.5204 26134.8   3423.0   7.4619 26358.0
 01 09 2016  02 13  -15.5194 26135.2   3423.5   7.4629 26358.4
 01 09 2016  02 14  -15.5191 26135.3   3422.9   7.4616 26358.5
 01 09 2016  02 15  -15.5187 26135.2   3422.9   7.4616 26358.4
 01 09 2016  02 16  -15.5181 26134.9   3422.5   7.4608 26358.0
 01 09 2016  02 17  -15.5171 26134.6   3422.8   7.4614 26357.8
 01 09 2016  02 18  -15.5163 26134.3   3422.1   7.4601 26357.4
 01 09 2016  02 19  -15.5155 26133.8   3421.8   7.4594 26356.9
 01 09 2016  02 20  -15.5138 26133.3   3422.6   7.4613 26356.5
 01 09 2016  02 21  -15.5135 26132.9   3421.3   7.4587 26355.9
 01 09 2016  02 22  -15.5141 26132.1   3421.4   7.4592 26355.2
 01 09 2016  02 23  -15.5143 26131.7   3420.8   7.4579 26354.6
 01 09 2016  02 24  -15.5151 26131.0   3420.6   7.4578 26353.9
 01 09 2016  02 25  -15.5153 26130.3   3420.9   7.4586 26353.3
 01 09 2016  02 26  -15.5150 26129.9   3421.2   7.4593 26353.0
 01 09 2016  02 27  -15.5167 26129.2   3420.2   7.4573 26352.1
 01 09 2016  02 28  -15.5178 26128.5   3419.9   7.4568 26351.4
 01 09 2016  02 29  -15.5180 26128.0   3419.5   7.4561 26350.8
 01 09 2016  02 30  -15.5187 26127.4   3419.9   7.4572 26350.2
 01 09 2016  02 31  -15.5202 26126.7   3419.6   7.4568 26349.6
 01 09 2016  02 32  -15.5209 26126.1   3419.8   7.4574 26349.0
 01 09 2016  02 33  -15.5222 26125.6   3419.5   7.4569 26348.4
 01 09 2016  02 34  -15.5231 26124.8   3419.0   7.4560 26347.5
 01 09 2016  02 35  -15.5239 26123.9   3419.4   7.4571 26346.7
 01 09 2016  02 36  -15.5240 26123.1   3420.4   7.4596 26346.1
 01 09 2016  02 37  -15.5258 26122.4   3419.1   7.4570 26345.2
 01 09 2016  02 38  -15.5267 26121.8   3418.9   7.4567 26344.6
 01 09 2016  02 39  -15.5270 26121.2   3419.6   7.4584 26344.1
 01 09 2016  02 40  -15.5271 26120.4   3419.1   7.4574 26343.2
 01 09 2016  02 41  -15.5286 26119.2   3419.2   7.4580 26342.1
 01 09 2016  02 42  -15.5287 26118.3   3419.3   7.4585 26341.1
 01 09 2016  02 43  -15.5292 26117.2   3419.5   7.4593 26340.1
 01 09 2016  02 44  -15.5292 26116.5   3419.6   7.4598 26339.4
 01 09 2016  02 45  -15.5297 26116.4   3419.4   7.4593 26339.3
 01 09 2016  02 46  -15.5297 26116.5   3420.3   7.4612 26339.5
 01 09 2016  02 47  -15.5300 26116.5   3420.3   7.4612 26339.5
 01 09 2016  02 48  -15.5301 26116.6   3420.9   7.4625 26339.7
 01 09 2016  02 49  -15.5301 26116.9   3421.1   7.4627 26340.0
 01 09 2016  02 50  -15.5301 26117.0   3421.5   7.4635 26340.2
 01 09 2016  02 51  -15.5299 26117.2   3421.5   7.4636 26340.4
 01 09 2016  02 52  -15.5302 26117.3   3421.6   7.4637 26340.4
 01 09 2016  02 53  -15.5300 26117.4   3421.7   7.4639 26340.6
 01 09 2016  02 54  -15.5300 26117.4   3421.8   7.4641 26340.6
 01 09 2016  02 55  -15.5300 26117.4   3421.7   7.4641 26340.6
 01 09 2016  02 56  -15.5303 26117.1   3421.7   7.4639 26340.3
 01 09 2016  02 57  -15.5303 26116.9   3421.8   7.4642 26340.1
 01 09 2016  02 58  -15.5305 26116.7   3421.4   7.4635 26339.8
 01 09 2016  02 59  -15.5310 26116.6   3421.4   7.4636 26339.8
 01 09 2016  03 00  -15.5312 26116.6   3422.3   7.4654 26339.9
 01 09 2016  03 01  -15.5314 26116.9   3421.0   7.4626 26340.0
 01 09 2016  03 02  -15.5307 26117.1   3422.4   7.4655 26340.3
 01 09 2016  03 03  -15.5305 26117.1   3422.4   7.4655 26340.4
 01 09 2016  03 04  -15.5317 26117.0   3421.4   7.4634 26340.1
 01 09 2016  03 05  -15.5304 26117.1   3423.2   7.4673 26340.5
 01 09 2016  03 06  -15.5305 26117.0   3423.5   7.4680 26340.5
 01 09 2016  03 07  -15.5303 26117.3   3422.2   7.4651 26340.5
 01 09 2016  03 08  -15.5293 26117.5   3422.3   7.4653 26340.7
 01 09 2016  03 09  -15.5288 26117.5   3422.7   7.4660 26340.8
 01 09 2016  03 10  -15.5279 26117.4   3423.7   7.4683 26340.9
 01 09 2016  03 11  -15.5276 26117.5   3423.5   7.4677 26340.9
 01 09 2016  03 12  -15.5273 26117.6   3423.3   7.4674 26341.0
 01 09 2016  03 13  -15.5278 26117.4   3423.6   7.4679 26340.8
 01 09 2016  03 14  -15.5272 26117.5   3422.1   7.4647 26340.7
 01 09 2016  03 15  -15.5271 26117.2   3422.8   7.4663 26340.6
 01 09 2016  03 16  -15.5267 26117.3   3422.6   7.4660 26340.6
 01 09 2016  03 17  -15.5271 26117.3   3421.6   7.4637 26340.5
 01 09 2016  03 18  -15.5274 26117.2   3422.8   7.4663 26340.6
 01 09 2016  03 19  -15.5270 26117.2   3422.5   7.4657 26340.5
 01 09 2016  03 20  -15.5275 26117.1   3422.0   7.4646 26340.3
 01 09 2016  03 21  -15.5268 26117.2   3422.1   7.4648 26340.5
 01 09 2016  03 22  -15.5266 26117.2   3422.7   7.4661 26340.6
 01 09 2016  03 23  -15.5262 26117.5   3422.8   7.4662 26340.8
 01 09 2016  03 24  -15.5263 26117.7   3422.7   7.4661 26341.0
 01 09 2016  03 25  -15.5263 26117.8   3423.0   7.4666 26341.2
 01 09 2016  03 26  -15.5260 26118.0   3422.9   7.4663 26341.4
 01 09 2016  03 27  -15.5263 26118.0   3422.6   7.4657 26341.3
 01 09 2016  03 28  -15.5257 26118.1   3422.5   7.4655 26341.4
 01 09 2016  03 29  -15.5256 26118.0   3423.0   7.4667 26341.3
 01 09 2016  03 30  -15.5255 26117.8   3422.8   7.4662 26341.1
 01 09 2016  03 31  -15.5255 26117.6   3422.5   7.4656 26340.9
 01 09 2016  03 32  -15.5255 26117.4   3422.7   7.4661 26340.7
 01 09 2016  03 33  -15.5260 26117.0   3422.4   7.4656 26340.3
 01 09 2016  03 34  -15.5263 26116.8   3421.6   7.4638 26340.0
 01 09 2016  03 35  -15.5261 26116.6   3421.9   7.4646 26339.8
 01 09 2016  03 36  -15.5258 26116.6   3422.1   7.4650 26339.8
 01 09 2016  03 37  -15.5263 26116.7   3421.5   7.4637 26339.9
 01 09 2016  03 38  -15.5271 26116.2   3423.2   7.4675 26339.6
 01 09 2016  03 39  -15.5271 26116.6   3422.5   7.4660 26339.9
 01 09 2016  03 40  -15.5271 26116.9   3423.8   7.4685 26340.3
 01 09 2016  03 41  -15.5278 26117.4   3422.8   7.4662 26340.7
 01 09 2016  03 42  -15.5276 26118.0   3423.6   7.4678 26341.4
 01 09 2016  03 43  -15.5275 26118.9   3423.1   7.4665 26342.2
 01 09 2016  03 44  -15.5268 26119.1   3423.8   7.4679 26342.6
 01 09 2016  03 45  -15.5266 26119.1   3424.0   7.4685 26342.6
 01 09 2016  03 46  -15.5271 26118.9   3423.0   7.4663 26342.2
 01 09 2016  03 47  -15.5272 26118.3   3423.0   7.4665 26341.6
 01 09 2016  03 48  -15.5274 26117.8   3422.3   7.4650 26341.1
 01 09 2016  03 49  -15.5279 26117.7   3422.2   7.4649 26340.9
 01 09 2016  03 50  -15.5279 26117.7   3422.1   7.4647 26341.0
 01 09 2016  03 51  -15.5279 26117.7   3422.4   7.4653 26341.0
 01 09 2016  03 52  -15.5288 26117.5   3422.2   7.4650 26340.8
 01 09 2016  03 53  -15.5294 26117.3   3422.8   7.4663 26340.7
 01 09 2016  03 54  -15.5290 26117.5   3422.8   7.4663 26340.8
 01 09 2016  03 55  -15.5294 26117.3   3422.2   7.4650 26340.5
 01 09 2016  03 56  -15.5297 26117.3   3422.5   7.4656 26340.5
 01 09 2016  03 57  -15.5300 26117.2   3422.6   7.4658 26340.5
 01 09 2016  03 58  -15.5305 26117.1   3422.5   7.4657 26340.4
 01 09 2016  03 59  -15.5310 26117.0   3422.6   7.4661 26340.3
 01 09 2016  04 00  -15.5312 26117.1   3423.2   7.4673 26340.5
 01 09 2016  04 01  -15.5329 26117.1   3423.0   7.4668 26340.5
 01 09 2016  04 02  -15.5326 26117.5   3422.5   7.4657 26340.8
 01 09 2016  04 03  -15.5334 26117.8   3422.5   7.4656 26341.1
 01 09 2016  04 04  -15.5340 26118.1   3422.7   7.4660 26341.5
 01 09 2016  04 05  -15.5344 26118.5   3422.6   7.4656 26341.8
 01 09 2016  04 06  -15.5352 26118.8   3422.2   7.4646 26342.0
 01 09 2016  04 07  -15.5355 26118.8   3422.1   7.4644 26342.1
 01 09 2016  04 08  -15.5350 26118.9   3422.0   7.4641 26342.1
 01 09 2016  04 09  -15.5347 26118.7   3423.3   7.4671 26342.1
 01 09 2016  04 10  -15.5356 26118.4   3423.2   7.4668 26341.7
 01 09 2016  04 11  -15.5360 26118.2   3422.9   7.4663 26341.5
 01 09 2016  04 12  -15.5359 26118.2   3422.6   7.4657 26341.5
 01 09 2016  04 13  -15.5368 26117.9   3422.1   7.4647 26341.1
 01 09 2016  04 14  -15.5361 26117.7   3423.1   7.4669 26341.1
 01 09 2016  04 15  -15.5363 26117.8   3422.7   7.4659 26341.1
 01 09 2016  04 16  -15.5369 26117.8   3422.6   7.4658 26341.1
 01 09 2016  04 17  -15.5361 26118.0   3423.0   7.4667 26341.3
 01 09 2016  04 18  -15.5360 26117.8   3423.2   7.4670 26341.2
 01 09 2016  04 19  -15.5365 26117.4   3423.0   7.4668 26340.8
 01 09 2016  04 20  -15.5351 26117.4   3423.7   7.4683 26340.9
 01 09 2016  04 21  -15.5351 26117.1   3422.4   7.4656 26340.4
 01 09 2016  04 22  -15.5363 26116.4   3421.9   7.4647 26339.6
 01 09 2016  04 23  -15.5351 26116.0   3422.2   7.4654 26339.2
 01 09 2016  04 24  -15.5363 26114.9   3421.4   7.4640 26338.1
 01 09 2016  04 25  -15.5350 26114.3   3422.6   7.4667 26337.6
 01 09 2016  04 26  -15.5348 26113.9   3422.2   7.4659 26337.2
 01 09 2016  04 27  -15.5338 26113.5   3422.1   7.4658 26336.8
 01 09 2016  04 28  -15.5323 26113.3   3422.3   7.4663 26336.6
 01 09 2016  04 29  -15.5318 26113.0   3422.3   7.4665 26336.3
 01 09 2016  04 30  -15.5312 26112.7   3422.6   7.4672 26336.1
 01 09 2016  04 31  -15.5305 26112.7   3422.6   7.4673 26336.1
 01 09 2016  04 32  -15.5306 26112.8   3422.7   7.4673 26336.1
 01 09 2016  04 33  -15.5301 26113.0   3423.1   7.4682 26336.4
 01 09 2016  04 34  -15.5300 26113.1   3423.1   7.4683 26336.5
 01 09 2016  04 35  -15.5298 26113.2   3423.4   7.4687 26336.7
 01 09 2016  04 36  -15.5299 26113.4   3423.3   7.4686 26336.8
 01 09 2016  04 37  -15.5300 26113.5   3423.2   7.4682 26337.0
 01 09 2016  04 38  -15.5305 26113.7   3423.5   7.4689 26337.2
 01 09 2016  04 39  -15.5311 26113.8   3423.6   7.4691 26337.2
 01 09 2016  04 40  -15.5314 26114.0   3423.4   7.4685 26337.4
 01 09 2016  04 41  -15.5326 26114.0   3422.9   7.4675 26337.4
 01 09 2016  04 42  -15.5326 26114.1   3423.9   7.4696 26337.6
 01 09 2016  04 43  -15.5344 26113.8   3422.9   7.4675 26337.2
 01 09 2016  04 44  -15.5344 26113.7   3424.3   7.4707 26337.3
 01 09 2016  04 45  -15.5347 26113.8   3423.6   7.4690 26337.3
 01 09 2016  04 46  -15.5365 26113.3   3423.1   7.4682 26336.7
 01 09 2016  04 47  -15.5371 26112.9   3422.4   7.4666 26336.2
 01 09 2016  04 48  -15.5386 26112.2   3422.9   7.4680 26335.5
 01 09 2016  04 49  -15.5394 26111.6   3422.6   7.4674 26335.0
 01 09 2016  04 50  -15.5398 26111.0   3423.4   7.4693 26334.4
 01 09 2016  04 51  -15.5406 26110.4   3422.6   7.4679 26333.7
 01 09 2016  04 52  -15.5414 26109.8   3422.4   7.4676 26333.2
 01 09 2016  04 53  -15.5415 26109.5   3422.7   7.4683 26332.9
 01 09 2016  04 54  -15.5421 26109.4   3422.8   7.4686 26332.8
 01 09 2016  04 55  -15.5422 26109.4   3423.1   7.4693 26332.9
 01 09 2016  04 56  -15.5420 26109.5   3423.4   7.4698 26333.0
 01 09 2016  04 57  -15.5420 26109.5   3423.6   7.4702 26333.0
 01 09 2016  04 58  -15.5422 26109.4   3423.9   7.4710 26332.9
 01 09 2016  04 59  -15.5422 26109.1   3423.6   7.4704 26332.6
 01 09 2016  05 00  -15.5422 26108.8   3423.6   7.4704 26332.3
 01 09 2016  05 01  -15.5416 26108.7   3424.0   7.4714 26332.2
 01 09 2016  05 02  -15.5417 26108.3   3424.2   7.4718 26331.9
 01 09 2016  05 03  -15.5416 26108.0   3423.5   7.4705 26331.5
 01 09 2016  05 04  -15.5419 26107.3   3423.4   7.4704 26330.8
 01 09 2016  05 05  -15.5421 26106.6   3423.6   7.4712 26330.1
 01 09 2016  05 06  -15.5417 26106.1   3423.3   7.4705 26329.6
 01 09 2016  05 07  -15.5420 26105.6   3423.4   7.4709 26329.1
 01 09 2016  05 08  -15.5421 26105.2   3423.1   7.4705 26328.6
 01 09 2016  05 09  -15.5419 26104.9   3423.2   7.4707 26328.4
 01 09 2016  05 10  -15.5429 26104.5   3423.9   7.4723 26328.0
 01 09 2016  05 11  -15.5422 26104.6   3424.5   7.4736 26328.2
 01 09 2016  05 12  -15.5426 26104.4   3424.5   7.4737 26328.1
 01 09 2016  05 13  -15.5426 26104.2   3424.8   7.4745 26328.0
 01 09 2016  05 14  -15.5434 26104.0   3424.5   7.4738 26327.7
 01 09 2016  05 15  -15.5435 26104.2   3423.6   7.4718 26327.7
 01 09 2016  05 16  -15.5425 26104.3   3424.8   7.4744 26328.0
 01 09 2016  05 17  -15.5439 26104.2   3424.3   7.4733 26327.8
 01 09 2016  05 18  -15.5432 26104.1   3425.0   7.4748 26327.9
 01 09 2016  05 19  -15.5426 26104.1   3424.7   7.4741 26327.8
 01 09 2016  05 20  -15.5433 26103.7   3424.5   7.4739 26327.3
 01 09 2016  05 21  -15.5434 26103.3   3424.6   7.4742 26327.0
 01 09 2016  05 22  -15.5430 26103.8   3424.9   7.4746 26327.5
 01 09 2016  05 23  -15.5425 26105.6   3425.2   7.4748 26329.3
 01 09 2016  05 24  -15.5428 26106.0   3425.3   7.4750 26329.8
 01 09 2016  05 25  -15.5430 26106.8   3426.7   7.4777 26330.7
 01 09 2016  05 26  -15.5427 26108.2   3426.6   7.4771 26332.1
 01 09 2016  05 27  -15.5412 26109.7   3426.9   7.4774 26333.6
 01 09 2016  05 28  -15.5414 26110.9   3426.4   7.4759 26334.7
 01 09 2016  05 29  -15.5414 26112.9   3427.8   7.4784 26336.9
 01 09 2016  05 30  -15.5407 26116.0   3429.1   7.4804 26340.1
 01 09 2016  05 31  -15.5400 26118.4   3430.0   7.4815 26342.7
 01 09 2016  05 32  -15.5392 26120.8   3430.4   7.4817 26345.1
 01 09 2016  05 33  -15.5396 26122.6   3430.6   7.4816 26346.9
 01 09 2016  05 34  -15.5396 26123.5   3430.2   7.4806 26347.7
 01 09 2016  05 35  -15.5400 26124.8   3429.8   7.4793 26348.9
 01 09 2016  05 36  -15.5401 26126.4   3430.4   7.4802 26350.6
 01 09 2016  05 37  -15.5417 26127.2   3428.8   7.4765 26351.2
 01 09 2016  05 38  -15.5429 26126.7   3427.5   7.4738 26350.6
 01 09 2016  05 39  -15.5450 26125.9   3426.5   7.4718 26349.6
 01 09 2016  05 40  -15.5456 26125.3   3427.1   7.4733 26349.1
 01 09 2016  05 41  -15.5462 26125.5   3426.6   7.4722 26349.2
 01 09 2016  05 42  -15.5471 26125.0   3425.8   7.4707 26348.6
 01 09 2016  05 43  -15.5467 26124.6   3425.7   7.4705 26348.2
 01 09 2016  05 44  -15.5467 26123.8   3426.0   7.4715 26347.5
 01 09 2016  05 45  -15.5462 26123.3   3425.2   7.4699 26346.9
 01 09 2016  05 46  -15.5450 26122.7   3424.8   7.4691 26346.2
 01 09 2016  05 47  -15.5443 26122.4   3425.8   7.4713 26346.1
 01 09 2016  05 48  -15.5439 26122.1   3425.5   7.4707 26345.8
 01 09 2016  05 49  -15.5435 26122.3   3425.3   7.4704 26345.9
 01 09 2016  05 50  -15.5429 26122.4   3425.7   7.4711 26346.0
 01 09 2016  05 51  -15.5435 26122.5   3425.2   7.4700 26346.1
 01 09 2016  05 52  -15.5425 26122.9   3425.8   7.4711 26346.5
 01 09 2016  05 53  -15.5430 26123.0   3424.6   7.4687 26346.5
 01 09 2016  05 54  -15.5425 26123.2   3424.8   7.4689 26346.7
 01 09 2016  05 55  -15.5414 26123.3   3425.8   7.4711 26347.0
 01 09 2016  05 56  -15.5428 26123.3   3424.9   7.4691 26346.9
 01 09 2016  05 57  -15.5424 26123.0   3426.5   7.4726 26346.8
 01 09 2016  05 58  -15.5420 26123.1   3425.4   7.4703 26346.8
 01 09 2016  05 59  -15.5405 26124.3   3425.9   7.4711 26347.9
 01 09 2016  06 00  -15.5410 26124.6   3426.2   7.4716 26348.3
 01 09 2016  06 01  -15.5400 26125.4   3426.1   7.4711 26349.1
 01 09 2016  06 02  -15.5397 26125.8   3426.4   7.4716 26349.6
 01 09 2016  06 03  -15.5397 26127.1   3427.3   7.4733 26351.0
 01 09 2016  06 04  -15.5395 26127.8   3427.2   7.4729 26351.6
 01 09 2016  06 05  -15.5397 26128.0   3425.9   7.4701 26351.7
 01 09 2016  06 06  -15.5394 26128.0   3426.6   7.4714 26351.8
 01 09 2016  06 07  -15.5405 26127.7   3427.4   7.4734 26351.5
 01 09 2016  06 08  -15.5404 26128.2   3427.3   7.4730 26352.0
 01 09 2016  06 09  -15.5405 26129.2   3427.2   7.4724 26353.0
 01 09 2016  06 10  -15.5394 26131.1   3428.3   7.4744 26355.0
 01 09 2016  06 11  -15.5403 26131.6   3428.5   7.4746 26355.5
 01 09 2016  06 12  -15.5420 26131.9   3427.3   7.4720 26355.7
 01 09 2016  06 13  -15.5419 26132.1   3428.3   7.4740 26356.0
 01 09 2016  06 14  -15.5421 26132.1   3427.2   7.4717 26355.9
 01 09 2016  06 15  -15.5424 26131.9   3425.9   7.4689 26355.5
 01 09 2016  06 16  -15.5431 26131.3   3426.6   7.4707 26355.0
 01 09 2016  06 17  -15.5425 26131.3   3425.6   7.4684 26354.8
 01 09 2016  06 18  -15.5432 26130.8   3426.4   7.4703 26354.5
 01 09 2016  06 19  -15.5437 26130.5   3425.3   7.4679 26354.1
 01 09 2016  06 20  -15.5451 26129.6   3425.7   7.4691 26353.2
 01 09 2016  06 21  -15.5446 26129.3   3425.3   7.4683 26352.8
 01 09 2016  06 22  -15.5448 26128.8   3425.1   7.4680 26352.3
 01 09 2016  06 23  -15.5462 26128.3   3424.1   7.4661 26351.7
 01 09 2016  06 24  -15.5459 26128.1   3424.5   7.4670 26351.6
 01 09 2016  06 25  -15.5461 26127.9   3425.8   7.4699 26351.5
 01 09 2016  06 26  -15.5479 26127.7   3424.9   7.4679 26351.2
 01 09 2016  06 27  -15.5487 26127.8   3424.2   7.4663 26351.2
 01 09 2016  06 28  -15.5496 26127.2   3424.8   7.4679 26350.7
 01 09 2016  06 29  -15.5492 26126.4   3424.8   7.4680 26349.9
 01 09 2016  06 30  -15.5496 26125.6   3424.9   7.4684 26349.1
 01 09 2016  06 31  -15.5496 26125.2   3425.6   7.4701 26348.8
 01 09 2016  06 32  -15.5491 26125.0   3425.9   7.4709 26348.7
 01 09 2016  06 33  -15.5484 26125.9   3426.3   7.4715 26349.6
 01 09 2016  06 34  -15.5478 26126.7   3426.5   7.4717 26350.5
 01 09 2016  06 35  -15.5475 26127.2   3425.6   7.4697 26350.8
 01 09 2016  06 36  -15.5471 26127.7   3425.1   7.4683 26351.2
 01 09 2016  06 37  -15.5471 26127.9   3425.4   7.4690 26351.5
 01 09 2016  06 38  -15.5469 26127.9   3426.3   7.4708 26351.6
 01 09 2016  06 39  -15.5462 26128.2   3426.2   7.4705 26351.9
 01 09 2016  06 40  -15.5467 26127.9   3426.1   7.4705 26351.6
 01 09 2016  06 41  -15.5466 26127.8   3425.8   7.4698 26351.5
 01 09 2016  06 42  -15.5464 26127.7   3425.6   7.4693 26351.3
 01 09 2016  06 43  -15.5464 26127.6   3425.6   7.4695 26351.2
 01 09 2016  06 44  -15.5455 26127.4   3425.9   7.4701 26351.0
 01 09 2016  06 45  -15.5442 26127.1   3425.4   7.4692 26350.7
 01 09 2016  06 46  -15.5435 26126.9   3425.8   7.4701 26350.6
 01 09 2016  06 47  -15.5427 26126.6   3425.2   7.4690 26350.2
 01 09 2016  06 48  -15.5424 26126.7   3425.6   7.4696 26350.3
 01 09 2016  06 49  -15.5419 26126.6   3425.8   7.4702 26350.3
 01 09 2016  06 50  -15.5406 26126.9   3426.1   7.4707 26350.6
 01 09 2016  06 51  -15.5403 26126.6   3426.1   7.4709 26350.3
 01 09 2016  06 52  -15.5389 26126.4   3426.5   7.4716 26350.1
 01 09 2016  06 53  -15.5373 26126.4   3425.2   7.4690 26350.0
 01 09 2016  06 54  -15.5371 26125.7   3426.2   7.4713 26349.4
 01 09 2016  06 55  -15.5362 26125.5   3425.5   7.4699 26349.2
 01 09 2016  06 56  -15.5353 26125.3   3425.2   7.4693 26348.9
 01 09 2016  06 57  -15.5358 26124.5   3424.9   7.4688 26348.1
 01 09 2016  06 58  -15.5358 26124.0   3423.7   7.4664 26347.4
 01 09 2016  06 59  -15.5349 26123.5   3425.4   7.4703 26347.1
 01 09 2016  07 00  -15.5348 26123.3   3424.9   7.4692 26346.8
 01 09 2016  07 01  -15.5338 26123.4   3425.0   7.4694 26347.0
 01 09 2016  07 02  -15.5327 26123.6   3425.8   7.4711 26347.3
 01 09 2016  07 03  -15.5326 26123.6   3426.6   7.4727 26347.3
 01 09 2016  07 04  -15.5323 26124.1   3424.9   7.4689 26347.6
 01 09 2016  07 05  -15.5321 26124.4   3425.7   7.4706 26348.0
 01 09 2016  07 06  -15.5323 26124.6   3426.7   7.4728 26348.4
 01 09 2016  07 07  -15.5336 26125.1   3425.4   7.4697 26348.7
 01 09 2016  07 08  -15.5351 26125.6   3426.2   7.4714 26349.3
 01 09 2016  07 09  -15.5359 26126.3   3426.5   7.4717 26350.1
 01 09 2016  07 10  -15.5378 26127.1   3425.7   7.4698 26350.7
 01 09 2016  07 11  -15.5389 26127.6   3427.1   7.4726 26351.4
 01 09 2016  07 12  -15.5393 26127.8   3426.3   7.4710 26351.5
 01 09 2016  07 13  -15.5397 26128.3   3425.5   7.4690 26351.9
 01 09 2016  07 14  -15.5398 26128.0   3426.0   7.4702 26351.6
 01 09 2016  07 15  -15.5395 26127.9   3426.7   7.4718 26351.6
 01 09 2016  07 16  -15.5407 26127.9   3427.0   7.4724 26351.7
 01 09 2016  07 17  -15.5426 26128.7   3427.0   7.4721 26352.5
 01 09 2016  07 18  -15.5457 26129.8   3427.2   7.4724 26353.6
 01 09 2016  07 19  -15.5480 26131.0   3427.1   7.4718 26354.8
 01 09 2016  07 20  -15.5494 26131.5   3427.6   7.4727 26355.4
 01 09 2016  07 21  -15.5492 26132.1   3427.2   7.4717 26355.9
 01 09 2016  07 22  -15.5496 26132.5   3427.7   7.4727 26356.4
 01 09 2016  07 23  -15.5508 26132.0   3427.9   7.4732 26355.9
 01 09 2016  07 24  -15.5509 26132.0   3427.0   7.4713 26355.7
 01 09 2016  07 25  -15.5505 26132.0   3427.9   7.4731 26355.9
 01 09 2016  07 26  -15.5506 26131.9   3427.1   7.4715 26355.7
 01 09 2016  07 27  -15.5503 26131.7   3427.2   7.4717 26355.5
 01 09 2016  07 28  -15.5514 26131.3   3426.1   7.4696 26354.9
 01 09 2016  07 29  -15.5515 26131.2   3426.5   7.4704 26354.9
 01 09 2016  07 30  -15.5514 26130.9   3426.4   7.4703 26354.6
 01 09 2016  07 31  -15.5515 26130.9   3427.0   7.4715 26354.7
 01 09 2016  07 32  -15.5518 26130.8   3426.9   7.4714 26354.6
 01 09 2016  07 33  -15.5529 26130.6   3427.0   7.4717 26354.4
 01 09 2016  07 34  -15.5533 26130.6   3426.6   7.4708 26354.3
 01 09 2016  07 35  -15.5537 26130.5   3427.7   7.4732 26354.4
 01 09 2016  07 36  -15.5545 26130.9   3426.6   7.4708 26354.6
 01 09 2016  07 37  -15.5550 26130.7   3426.6   7.4707 26354.4
 01 09 2016  07 38  -15.5540 26130.8   3426.2   7.4699 26354.5
 01 09 2016  07 39  -15.5540 26130.4   3427.0   7.4718 26354.2
 01 09 2016  07 40  -15.5532 26130.5   3427.3   7.4723 26354.3
 01 09 2016  07 41  -15.5528 26130.1   3426.3   7.4703 26353.8
 01 09 2016  07 42  -15.5534 26129.4   3425.7   7.4691 26353.0
 01 09 2016  07 43  -15.5527 26128.8   3426.8   7.4717 26352.5
 01 09 2016  07 44  -15.5518 26128.5   3425.6   7.4692 26352.1
 01 09 2016  07 45  -15.5510 26128.1   3425.8   7.4697 26351.7
 01 09 2016  07 46  -15.5496 26127.8   3426.5   7.4714 26351.6
 01 09 2016  07 47  -15.5485 26127.9   3426.9   7.4721 26351.6
 01 09 2016  07 48  -15.5477 26127.8   3426.8   7.4719 26351.6
 01 09 2016  07 49  -15.5464 26128.0   3426.2   7.4706 26351.6
 01 09 2016  07 50  -15.5458 26127.7   3425.9   7.4701 26351.4
 01 09 2016  07 51  -15.5453 26127.4   3426.4   7.4712 26351.2
 01 09 2016  07 52  -15.5444 26127.7   3425.4   7.4689 26351.2
 01 09 2016  07 53  -15.5423 26127.9   3426.5   7.4713 26351.6
 01 09 2016  07 54  -15.5420 26127.9   3426.9   7.4723 26351.7
 01 09 2016  07 55  -15.5410 26128.3   3425.7   7.4696 26351.9
 01 09 2016  07 56  -15.5399 26128.4   3426.8   7.4718 26352.2
 01 09 2016  07 57  -15.5394 26128.7   3425.7   7.4694 26352.3
 01 09 2016  07 58  -15.5377 26129.1   3426.3   7.4706 26352.8
 01 09 2016  07 59  -15.5365 26129.4   3426.4   7.4708 26353.1
 01 09 2016  08 00  -15.5360 26129.3   3426.5   7.4710 26353.1
 01 09 2016  08 01  -15.5345 26129.9   3426.1   7.4698 26353.6
 01 09 2016  08 02  -15.5331 26130.1   3426.9   7.4716 26353.9
 01 09 2016  08 03  -15.5317 26130.6   3426.9   7.4714 26354.3
 01 09 2016  08 04  -15.5308 26130.9   3426.8   7.4712 26354.6
 01 09 2016  08 05  -15.5299 26131.3   3427.0   7.4715 26355.1
 01 09 2016  08 06  -15.5289 26131.7   3426.7   7.4706 26355.4
 01 09 2016  08 07  -15.5285 26132.0   3426.8   7.4709 26355.7
 01 09 2016  08 08  -15.5274 26132.7   3426.8   7.4707 26356.4
 01 09 2016  08 09  -15.5264 26133.1   3428.1   7.4732 26357.0
 01 09 2016  08 10  -15.5267 26133.6   3427.2   7.4713 26357.4
 01 09 2016  08 11  -15.5268 26133.9   3428.0   7.4729 26357.7
 01 09 2016  08 12  -15.5259 26134.6   3427.1   7.4708 26358.4
 01 09 2016  08 13  -15.5262 26134.7   3427.2   7.4709 26358.4
 01 09 2016  08 14  -15.5267 26134.6   3426.0   7.4684 26358.2
 01 09 2016  08 15  -15.5264 26134.2   3427.4   7.4715 26358.0
 01 09 2016  08 16  -15.5260 26134.1   3426.8   7.4702 26357.8
 01 09 2016  08 17  -15.5269 26133.8   3424.9   7.4663 26357.3
 01 09 2016  08 18  -15.5269 26133.5   3425.3   7.4671 26357.0
 01 09 2016  08 19  -15.5274 26133.1   3426.0   7.4688 26356.7
 01 09 2016  08 20  -15.5263 26133.3   3426.2   7.4691 26356.9
 01 09 2016  08 21  -15.5272 26133.2   3425.0   7.4665 26356.7
 01 09 2016  08 22  -15.5270 26133.2   3426.8   7.4705 26356.9
 01 09 2016  08 23  -15.5273 26133.3   3427.0   7.4708 26357.1
 01 09 2016  08 24  -15.5267 26133.6   3426.8   7.4704 26357.3
 01 09 2016  08 25  -15.5272 26133.7   3426.4   7.4695 26357.3
 01 09 2016  08 26  -15.5275 26133.6   3426.3   7.4693 26357.3
 01 09 2016  08 27  -15.5278 26133.5   3426.3   7.4692 26357.2
 01 09 2016  08 28  -15.5283 26133.3   3426.1   7.4689 26356.9
 01 09 2016  08 29  -15.5289 26132.9   3425.8   7.4685 26356.5
 01 09 2016  08 30  -15.5293 26132.5   3425.9   7.4687 26356.1
 01 09 2016  08 31  -15.5295 26132.1   3425.6   7.4683 26355.7
 01 09 2016  08 32  -15.5298 26131.8   3425.6   7.4682 26355.4
 01 09 2016  08 33  -15.5301 26131.7   3425.6   7.4684 26355.3
 01 09 2016  08 34  -15.5302 26131.5   3425.8   7.4688 26355.1
 01 09 2016  08 35  -15.5305 26131.4   3425.8   7.4688 26355.0
 01 09 2016  08 36  -15.5297 26131.6   3426.1   7.4694 26355.2
 01 09 2016  08 37  -15.5301 26131.7   3426.3   7.4698 26355.3
 01 09 2016  08 38  -15.5298 26131.7   3426.2   7.4697 26355.4
 01 09 2016  08 39  -15.5302 26131.5   3426.6   7.4706 26355.2
 01 09 2016  08 40  -15.5296 26131.4   3425.8   7.4689 26355.0
 01 09 2016  08 41  -15.5291 26130.9   3426.0   7.4693 26354.5
 01 09 2016  08 42  -15.5296 26130.3   3425.9   7.4693 26354.0
 01 09 2016  08 43  -15.5287 26130.5   3426.1   7.4698 26354.2
 01 09 2016  08 44  -15.5291 26130.5   3425.2   7.4677 26354.0
 01 09 2016  08 45  -15.5295 26130.2   3425.5   7.4684 26353.8
 01 09 2016  08 46  -15.5289 26130.1   3427.0   7.4719 26353.9
 01 09 2016  08 47  -15.5294 26129.9   3426.5   7.4707 26353.6
 01 09 2016  08 48  -15.5296 26129.8   3425.4   7.4684 26353.3
 01 09 2016  08 49  -15.5290 26129.7   3425.8   7.4693 26353.3
 01 09 2016  08 50  -15.5298 26129.3   3426.6   7.4712 26353.0
 01 09 2016  08 51  -15.5297 26129.3   3425.2   7.4681 26352.9
 01 09 2016  08 52  -15.5298 26128.9   3425.7   7.4693 26352.5
 01 09 2016  08 53  -15.5302 26128.6   3425.1   7.4681 26352.1
 01 09 2016  08 54  -15.5294 26128.2   3426.2   7.4705 26351.9
 01 09 2016  08 55  -15.5299 26127.8   3425.7   7.4696 26351.5
 01 09 2016  08 56  -15.5296 26127.4   3425.7   7.4698 26351.0
 01 09 2016  08 57  -15.5300 26127.1   3425.3   7.4690 26350.7
 01 09 2016  08 58  -15.5300 26127.1   3425.5   7.4694 26350.7
 01 09 2016  08 59  -15.5301 26126.9   3425.6   7.4696 26350.6
 01 09 2016  09 00  -15.5296 26126.7   3426.5   7.4716 26350.4
 01 09 2016  09 01  -15.5293 26126.4   3425.5   7.4695 26350.0
 01 09 2016  09 02  -15.5292 26125.9   3425.2   7.4690 26349.5
 01 09 2016  09 03  -15.5288 26125.4   3425.0   7.4687 26349.0
 01 09 2016  09 04  -15.5283 26125.1   3425.1   7.4692 26348.6
 01 09 2016  09 05  -15.5276 26124.9   3425.2   7.4693 26348.4
 01 09 2016  09 06  -15.5273 26124.8   3425.7   7.4705 26348.4
 01 09 2016  09 07  -15.5268 26124.8   3426.1   7.4714 26348.5
 01 09 2016  09 08  -15.5277 26124.8   3425.2   7.4694 26348.3
 01 09 2016  09 09  -15.5271 26124.9   3426.0   7.4711 26348.6
 01 09 2016  09 10  -15.5281 26124.4   3425.0   7.4691 26348.0
 01 09 2016  09 11  -15.5271 26124.6   3425.7   7.4706 26348.3
 01 09 2016  09 12  -15.5270 26124.7   3425.0   7.4690 26348.2
 01 09 2016  09 13  -15.5272 26124.7   3425.2   7.4694 26348.3
 01 09 2016  09 14  -15.5278 26124.6   3426.1   7.4713 26348.3
 01 09 2016  09 15  -15.5275 26124.9   3425.1   7.4692 26348.5
 01 09 2016  09 16  -15.5269 26124.7   3425.9   7.4709 26348.4
 01 09 2016  09 17  -15.5280 26124.0   3425.6   7.4705 26347.6
 01 09 2016  09 18  -15.5276 26123.6   3426.0   7.4714 26347.3
 01 09 2016  09 19  -15.5282 26123.4   3425.7   7.4708 26347.1
 01 09 2016  09 20  -15.5289 26123.6   3426.2   7.4718 26347.3
 01 09 2016  09 21  -15.5291 26124.3   3426.1   7.4716 26348.0
 01 09 2016  09 22  -15.5290 26124.6   3426.4   7.4721 26348.3
 01 09 2016  09 23  -15.5286 26124.7   3426.6   7.4724 26348.5
 01 09 2016  09 24  -15.5282 26124.8   3426.6   7.4724 26348.6
 01 09 2016  09 25  -15.5280 26124.8   3426.4   7.4721 26348.6
 01 09 2016  09 26  -15.5276 26124.8   3426.5   7.4721 26348.5
 01 09 2016  09 27  -15.5274 26124.9   3426.6   7.4723 26348.7
 01 09 2016  09 28  -15.5270 26124.9   3426.4   7.4720 26348.6
 01 09 2016  09 29  -15.5265 26124.8   3426.3   7.4717 26348.5
 01 09 2016  09 30  -15.5257 26125.0   3426.5   7.4722 26348.8
 01 09 2016  09 31  -15.5246 26125.4   3426.9   7.4728 26349.2
 01 09 2016  09 32  -15.5236 26125.4   3427.0   7.4731 26349.2
 01 09 2016  09 33  -15.5227 26125.5   3427.1   7.4733 26349.3
 01 09 2016  09 34  -15.5219 26125.7   3427.4   7.4738 26349.6
 01 09 2016  09 35  -15.5209 26125.8   3427.3   7.4737 26349.6
 01 09 2016  09 36  -15.5199 26125.8   3427.4   7.4739 26349.7
 01 09 2016  09 37  -15.5188 26125.8   3427.5   7.4741 26349.7
 01 09 2016  09 38  -15.5173 26125.5   3427.6   7.4743 26349.4
 01 09 2016  09 39  -15.5162 26125.4   3427.5   7.4743 26349.3
 01 09 2016  09 40  -15.5152 26125.3   3427.4   7.4740 26349.1
 01 09 2016  09 41  -15.5142 26124.6   3427.0   7.4732 26348.4
 01 09 2016  09 42  -15.5131 26124.1   3427.1   7.4736 26347.9
 01 09 2016  09 43  -15.5124 26123.5   3426.7   7.4730 26347.3
 01 09 2016  09 44  -15.5126 26122.8   3426.5   7.4728 26346.5
 01 09 2016  09 45  -15.5122 26122.4   3426.6   7.4730 26346.1
 01 09 2016  09 46  -15.5115 26121.7   3426.7   7.4735 26345.5
 01 09 2016  09 47  -15.5107 26121.2   3426.6   7.4734 26345.0
 01 09 2016  09 48  -15.5099 26120.9   3427.1   7.4746 26344.8
 01 09 2016  09 49  -15.5087 26120.6   3427.4   7.4753 26344.5
 01 09 2016  09 50  -15.5080 26120.3   3427.5   7.4756 26344.2
 01 09 2016  09 51  -15.5077 26120.1   3427.9   7.4766 26344.0
 01 09 2016  09 52  -15.5073 26119.6   3428.2   7.4773 26343.6
 01 09 2016  09 53  -15.5067 26119.0   3428.2   7.4775 26343.0
 01 09 2016  09 54  -15.5063 26118.4   3428.4   7.4782 26342.5
 01 09 2016  09 55  -15.5060 26117.8   3428.7   7.4790 26341.9
 01 09 2016  09 56  -15.5057 26117.0   3428.7   7.4792 26341.1
 01 09 2016  09 57  -15.5049 26116.3   3429.0   7.4801 26340.4
 01 09 2016  09 58  -15.5037 26115.7   3429.2   7.4806 26339.9
 01 09 2016  09 59  -15.5029 26115.2   3429.4   7.4812 26339.4
 01 09 2016  10 00  -15.5023 26114.7   3429.6   7.4817 26339.0
 01 09 2016  10 01  -15.5023 26114.1   3430.0   7.4827 26338.4
 01 09 2016  10 02  -15.5019 26113.6   3430.1   7.4832 26337.9
 01 09 2016  10 03  -15.5012 26113.5   3430.4   7.4837 26337.8
 01 09 2016  10 04  -15.5008 26112.9   3430.4   7.4841 26337.2
 01 09 2016  10 05  -15.5003 26112.6   3430.6   7.4845 26337.0
 01 09 2016  10 06  -15.4998 26112.4   3430.3   7.4840 26336.8
 01 09 2016  10 07  -15.4995 26111.8   3431.6   7.4868 26336.3
 01 09 2016  10 08  -15.4986 26111.7   3431.3   7.4863 26336.2
 01 09 2016  10 09  -15.4988 26111.5   3431.0   7.4858 26336.0
 01 09 2016  10 10  -15.4982 26111.2   3431.5   7.4867 26335.7
 01 09 2016  10 11  -15.4982 26111.2   3430.8   7.4853 26335.6
 01 09 2016  10 12  -15.4973 26110.9   3431.9   7.4878 26335.4
 01 09 2016  10 13  -15.4969 26110.3   3432.0   7.4882 26334.9
 01 09 2016  10 14  -15.4969 26109.9   3431.7   7.4875 26334.4
 01 09 2016  10 15  -15.4963 26109.6   3431.9   7.4882 26334.1
 01 09 2016  10 16  -15.4958 26109.3   3431.9   7.4881 26333.8
 01 09 2016  10 17  -15.4945 26108.9   3432.5   7.4897 26333.6
 01 09 2016  10 18  -15.4946 26108.8   3431.8   7.4882 26333.4
 01 09 2016  10 19  -15.4937 26108.4   3432.9   7.4907 26333.1
 01 09 2016  10 20  -15.4933 26108.4   3432.3   7.4893 26333.1
 01 09 2016  10 21  -15.4929 26108.4   3432.3   7.4893 26333.0
 01 09 2016  10 22  -15.4924 26108.1   3433.0   7.4908 26332.8
 01 09 2016  10 23  -15.4920 26108.2   3433.6   7.4923 26333.0
 01 09 2016  10 24  -15.4915 26108.2   3434.1   7.4932 26333.0
 01 09 2016  10 25  -15.4918 26108.1   3433.5   7.4920 26332.9
 01 09 2016  10 26  -15.4914 26108.3   3433.7   7.4923 26333.1
 01 09 2016  10 27  -15.4922 26108.2   3433.2   7.4914 26332.9
 01 09 2016  10 28  -15.4917 26108.2   3433.5   7.4919 26333.0
 01 09 2016  10 29  -15.4905 26108.3   3433.6   7.4921 26333.1
 01 09 2016  10 30  -15.4902 26108.2   3433.8   7.4927 26333.0
 01 09 2016  10 31  -15.4894 26108.3   3434.2   7.4935 26333.2
 01 09 2016  10 32  -15.4889 26108.5   3434.0   7.4931 26333.4
 01 09 2016  10 33  -15.4884 26108.5   3434.1   7.4932 26333.4
 01 09 2016  10 34  -15.4877 26108.9   3434.3   7.4936 26333.8
 01 09 2016  10 35  -15.4868 26109.2   3434.4   7.4936 26334.1
 01 09 2016  10 36  -15.4863 26109.4   3434.6   7.4940 26334.4
 01 09 2016  10 37  -15.4861 26109.8   3434.6   7.4938 26334.7
 01 09 2016  10 38  -15.4861 26110.1   3433.9   7.4923 26335.0
 01 09 2016  10 39  -15.4861 26110.4   3433.7   7.4919 26335.3
 01 09 2016  10 40  -15.4857 26110.8   3434.0   7.4922 26335.6
 01 09 2016  10 41  -15.4844 26111.2   3434.3   7.4929 26336.1
 01 09 2016  10 42  -15.4839 26111.6   3434.1   7.4924 26336.4
 01 09 2016  10 43  -15.4833 26111.9   3434.1   7.4923 26336.8
 01 09 2016  10 44  -15.4825 26112.2   3433.9   7.4917 26337.0
 01 09 2016  10 45  -15.4816 26112.5   3434.4   7.4927 26337.4
 01 09 2016  10 46  -15.4825 26112.9   3433.7   7.4910 26337.7
 01 09 2016  10 47  -15.4833 26112.9   3432.8   7.4892 26337.6
 01 09 2016  10 48  -15.4827 26112.6   3432.7   7.4891 26337.3
 01 09 2016  10 49  -15.4822 26112.4   3432.4   7.4884 26337.1
 01 09 2016  10 50  -15.4826 26112.6   3431.9   7.4874 26337.2
 01 09 2016  10 51  -15.4829 26112.8   3431.1   7.4854 26337.2
 01 09 2016  10 52  -15.4831 26113.1   3431.2   7.4857 26337.5
 01 09 2016  10 53  -15.4844 26113.2   3431.3   7.4858 26337.7
 01 09 2016  10 54  -15.4861 26113.3   3431.0   7.4852 26337.7
 01 09 2016  10 55  -15.4865 26113.7   3431.6   7.4864 26338.2
 01 09 2016  10 56  -15.4868 26114.2   3431.5   7.4860 26338.7
 01 09 2016  10 57  -15.4866 26114.6   3432.1   7.4871 26339.1
 01 09 2016  10 58  -15.4875 26114.8   3431.4   7.4856 26339.2
 01 09 2016  10 59  -15.4874 26115.0   3431.5   7.4858 26339.5
 01 09 2016  11 00  -15.4874 26115.1   3431.8   7.4863 26339.6
 01 09 2016  11 01  -15.4868 26115.3   3431.2   7.4851 26339.7
 01 09 2016  11 02  -15.4859 26115.4   3430.9   7.4844 26339.8
 01 09 2016  11 03  -15.4850 26115.7   3430.9   7.4842 26340.1
 01 09 2016  11 04  -15.4838 26116.2   3431.3   7.4851 26340.6
 01 09 2016  11 05  -15.4841 26116.5   3430.4   7.4829 26340.8
 01 09 2016  11 06  -15.4838 26116.8   3430.2   7.4825 26341.1
 01 09 2016  11 07  -15.4836 26117.1   3429.7   7.4812 26341.3
 01 09 2016  11 08  -15.4842 26117.2   3430.0   7.4819 26341.5
 01 09 2016  11 09  -15.4848 26117.4   3429.6   7.4809 26341.6
 01 09 2016  11 10  -15.4853 26117.7   3429.4   7.4806 26341.8
 01 09 2016  11 11  -15.4851 26118.1   3429.8   7.4813 26342.3
 01 09 2016  11 12  -15.4849 26118.5   3429.6   7.4807 26342.7
 01 09 2016  11 13  -15.4848 26118.9   3429.9   7.4811 26343.2
 01 09 2016  11 14  -15.4839 26119.6   3430.1   7.4814 26343.8
 01 09 2016  11 15  -15.4830 26120.3   3429.3   7.4796 26344.4
 01 09 2016  11 16  -15.4813 26121.3   3429.9   7.4804 26345.5
 01 09 2016  11 17  -15.4801 26122.5   3429.6   7.4795 26346.6
 01 09 2016  11 18  -15.4793 26123.8   3428.9   7.4777 26347.8
 01 09 2016  11 19  -15.4784 26125.1   3428.5   7.4764 26349.1
 01 09 2016  11 20  -15.4778 26126.4   3427.7   7.4744 26350.3
 01 09 2016  11 21  -15.4770 26127.3   3426.7   7.4720 26351.1
 01 09 2016  11 22  -15.4767 26128.2   3425.9   7.4699 26351.8
 01 09 2016  11 23  -15.4762 26129.1   3425.4   7.4685 26352.7
 01 09 2016  11 24  -15.4757 26130.1   3424.9   7.4673 26353.6
 01 09 2016  11 25  -15.4766 26131.0   3424.3   7.4656 26354.4
 01 09 2016  11 26  -15.4765 26131.8   3423.8   7.4645 26355.1
 01 09 2016  11 27  -15.4760 26133.3   3423.7   7.4637 26356.6
 01 09 2016  11 28  -15.4760 26134.6   3423.3   7.4626 26357.8
 01 09 2016  11 29  -15.4753 26136.0   3422.8   7.4612 26359.2
 01 09 2016  11 30  -15.4748 26137.6   3421.9   7.4587 26360.6
 01 09 2016  11 31  -15.4739 26139.4   3422.1   7.4585 26362.5
 01 09 2016  11 32  -15.4744 26140.8   3420.6   7.4549 26363.7
 01 09 2016  11 33  -15.4745 26141.3   3419.6   7.4526 26364.0
 01 09 2016  11 34  -15.4761 26141.0   3417.9   7.4490 26363.5
 01 09 2016  11 35  -15.4761 26141.0   3417.5   7.4483 26363.5
 01 09 2016  11 36  -15.4766 26141.1   3416.8   7.4466 26363.4
 01 09 2016  11 37  -15.4776 26140.9   3416.2   7.4454 26363.2
 01 09 2016  11 38  -15.4779 26140.9   3415.6   7.4442 26363.1
 01 09 2016  11 39  -15.4789 26140.8   3415.1   7.4431 26362.9
 01 09 2016  11 40  -15.4804 26140.5   3414.5   7.4418 26362.6
 01 09 2016  11 41  -15.4815 26140.1   3414.7   7.4424 26362.2
 01 09 2016  11 42  -15.4823 26139.8   3414.6   7.4423 26361.9
 01 09 2016  11 43  -15.4828 26139.5   3414.0   7.4411 26361.5
 01 09 2016  11 44  -15.4825 26139.3   3413.7   7.4404 26361.3
 01 09 2016  11 45  -15.4827 26138.7   3413.3   7.4399 26360.7
 01 09 2016  11 46  -15.4837 26138.6   3413.2   7.4396 26360.5
 01 09 2016  11 47  -15.4832 26139.2   3413.3   7.4397 26361.1
 01 09 2016  11 48  -15.4843 26139.2   3412.5   7.4380 26361.1
 01 09 2016  11 49  -15.4844 26139.8   3412.4   7.4376 26361.6
 01 09 2016  11 50  -15.4847 26140.3   3411.8   7.4362 26362.0
 01 09 2016  11 51  -15.4859 26140.5   3410.4   7.4331 26362.0
 01 09 2016  11 52  -15.4866 26140.6   3410.3   7.4329 26362.1
 01 09 2016  11 53  -15.4870 26140.8   3410.3   7.4327 26362.3
 01 09 2016  11 54  -15.4872 26141.3   3409.2   7.4303 26362.6
 01 09 2016  11 55  -15.4876 26141.8   3409.7   7.4313 26363.2
 01 09 2016  11 56  -15.4879 26142.0   3409.3   7.4303 26363.4
 01 09 2016  11 57  -15.4873 26142.7   3409.2   7.4298 26364.0
 01 09 2016  11 58  -15.4867 26144.0   3408.1   7.4271 26365.2
 01 09 2016  11 59  -15.4869 26144.5   3407.8   7.4262 26365.7
 01 09 2016  12 00  -15.4878 26144.8   3406.6   7.4237 26365.8
 01 09 2016  12 01  -15.4874 26145.3   3406.8   7.4239 26366.3
 01 09 2016  12 02  -15.4876 26146.2   3405.5   7.4209 26367.0
 01 09 2016  12 03  -15.4871 26147.0   3405.9   7.4216 26367.9
 01 09 2016  12 04  -15.4881 26147.6   3404.3   7.4180 26368.3
 01 09 2016  12 05  -15.4885 26148.2   3403.8   7.4168 26368.8
 01 09 2016  12 06  -15.4888 26148.9   3403.3   7.4155 26369.4
 01 09 2016  12 07  -15.4887 26149.7   3402.8   7.4142 26370.1
 01 09 2016  12 08  -15.4884 26150.5   3402.4   7.4130 26370.9
 01 09 2016  12 09  -15.4886 26151.1   3401.1   7.4100 26371.4
 01 09 2016  12 10  -15.4883 26151.9   3401.0   7.4096 26372.1
 01 09 2016  12 11  -15.4878 26153.1   3400.6   7.4084 26373.2
 01 09 2016  12 12  -15.4879 26154.0   3399.5   7.4058 26374.0
 01 09 2016  12 13  -15.4882 26154.6   3398.6   7.4037 26374.5
 01 09 2016  12 14  -15.4880 26155.3   3398.2   7.4027 26375.2
 01 09 2016  12 15  -15.4888 26156.2   3397.1   7.4000 26375.9
 01 09 2016  12 16  -15.4895 26157.3   3396.4   7.3982 26376.9
 01 09 2016  12 17  -15.4903 26157.8   3395.9   7.3969 26377.3
 01 09 2016  12 18  -15.4909 26158.2   3394.6   7.3941 26377.5
 01 09 2016  12 19  -15.4912 26158.3   3394.2   7.3932 26377.6
 01 09 2016  12 20  -15.4918 26158.8   3393.4   7.3913 26377.9
 01 09 2016  12 21  -15.4906 26159.7   3393.7   7.3918 26378.9
 01 09 2016  12 22  -15.4909 26160.8   3393.1   7.3900 26379.9
 01 09 2016  12 23  -15.4920 26161.3   3391.7   7.3868 26380.3
 01 09 2016  12 24  -15.4935 26161.7   3390.4   7.3840 26380.4
 01 09 2016  12 25  -15.4937 26161.8   3389.8   7.3827 26380.5
 01 09 2016  12 26  -15.4948 26161.3   3388.8   7.3807 26379.9
 01 09 2016  12 27  -15.4953 26161.1   3388.7   7.3806 26379.6
 01 09 2016  12 28  -15.4947 26162.2   3388.8   7.3804 26380.8
 01 09 2016  12 29  -15.4935 26163.9   3389.1   7.3806 26382.5
 01 09 2016  12 30  -15.4926 26165.6   3388.9   7.3796 26384.2
 01 09 2016  12 31  -15.4908 26167.4   3389.2   7.3798 26386.0
 01 09 2016  12 32  -15.4916 26168.5   3387.7   7.3763 26386.9
 01 09 2016  12 33  -15.4941 26168.6   3386.4   7.3735 26386.8
 01 09 2016  12 34  -15.4947 26168.9   3385.5   7.3715 26387.0
 01 09 2016  12 35  -15.4956 26169.1   3383.9   7.3680 26387.0
 01 09 2016  12 36  -15.4952 26170.0   3383.6   7.3670 26387.8
 01 09 2016  12 37  -15.4954 26171.1   3384.3   7.3682 26389.0
 01 09 2016  12 38  -15.4944 26173.6   3383.7   7.3663 26391.4
 01 09 2016  12 39  -15.4926 26177.3   3384.5   7.3671 26395.1
 01 09 2016  12 40  -15.4924 26180.8   3384.0   7.3650 26398.6
 01 09 2016  12 41  -15.4909 26184.4   3383.1   7.3619 26402.0
 01 09 2016  12 42  -15.4903 26187.4   3381.3   7.3573 26404.8
 01 09 2016  12 43  -15.4895 26189.9   3379.9   7.3535 26407.1
 01 09 2016  12 44  -15.4904 26191.2   3377.0   7.3470 26408.1
 01 09 2016  12 45  -15.4906 26193.0   3376.2   7.3447 26409.7
 01 09 2016  12 46  -15.4900 26195.4   3375.5   7.3426 26412.0
 01 09 2016  12 47  -15.4909 26197.1   3374.2   7.3394 26413.5
 01 09 2016  12 48  -15.4908 26199.1   3372.5   7.3351 26415.3
 01 09 2016  12 49  -15.4911 26200.1   3371.3   7.3323 26416.1
 01 09 2016  12 50  -15.4920 26201.0   3369.2   7.3276 26416.7
 01 09 2016  12 51  -15.4937 26200.0   3366.5   7.3219 26415.4
 01 09 2016  12 52  -15.4963 26198.2   3364.9   7.3189 26413.4
 01 09 2016  12 53  -15.4986 26196.5   3363.3   7.3160 26411.5
 01 09 2016  12 54  -15.5002 26195.9   3363.8   7.3174 26411.0
 01 09 2016  12 55  -15.5020 26195.9   3364.1   7.3179 26411.0
 01 09 2016  12 56  -15.5020 26197.2   3364.7   7.3189 26412.4
 01 09 2016  12 57  -15.5028 26198.1   3364.0   7.3172 26413.2
 01 09 2016  12 58  -15.5043 26197.1   3362.5   7.3142 26412.0
 01 09 2016  12 59  -15.5060 26195.8   3361.1   7.3114 26410.5
 01 09 2016  13 00  -15.5064 26195.4   3360.9   7.3111 26410.1
 01 09 2016  13 01  -15.5080 26195.2   3360.5   7.3103 26409.9
 01 09 2016  13 02  -15.5084 26195.4   3360.5   7.3104 26410.1
 01 09 2016  13 03  -15.5096 26194.9   3360.1   7.3096 26409.6
 01 09 2016  13 04  -15.5112 26194.9   3358.4   7.3059 26409.3
 01 09 2016  13 05  -15.5110 26196.2   3359.3   7.3076 26410.7
 01 09 2016  13 06  -15.5129 26196.2   3358.0   7.3048 26410.5
 01 09 2016  13 07  -15.5140 26195.1   3356.3   7.3013 26409.3
 01 09 2016  13 08  -15.5165 26191.6   3354.4   7.2981 26405.5
 01 09 2016  13 09  -15.5205 26187.2   3352.5   7.2953 26400.9
 01 09 2016  13 10  -15.5237 26183.6   3352.6   7.2965 26397.4
 01 09 2016  13 11  -15.5270 26180.5   3352.6   7.2975 26394.3
 01 09 2016  13 12  -15.5280 26178.4   3354.2   7.3015 26392.4
 01 09 2016  13 13  -15.5296 26176.8   3355.5   7.3048 26391.0
 01 09 2016  13 14  -15.5312 26174.8   3356.1   7.3065 26389.1
 01 09 2016  13 15  -15.5333 26173.0   3356.6   7.3080 26387.4
 01 09 2016  13 16  -15.5337 26171.8   3358.0   7.3114 26386.4
 01 09 2016  13 17  -15.5335 26172.3   3359.3   7.3141 26387.0
 01 09 2016  13 18  -15.5325 26174.1   3361.3   7.3179 26389.1
 01 09 2016  13 19  -15.5332 26174.8   3361.6   7.3184 26389.8
 01 09 2016  13 20  -15.5349 26173.5   3360.3   7.3160 26388.3
 01 09 2016  13 21  -15.5374 26171.4   3359.1   7.3139 26386.1
 01 09 2016  13 22  -15.5388 26171.0   3359.7   7.3154 26385.8
 01 09 2016  13 23  -15.5401 26170.6   3361.0   7.3183 26385.5
 01 09 2016  13 24  -15.5417 26168.9   3360.1   7.3167 26383.8
 01 09 2016  13 25  -15.5426 26167.8   3360.4   7.3176 26382.7
 01 09 2016  13 26  -15.5429 26167.4   3361.2   7.3196 26382.4
 01 09 2016  13 27  -15.5421 26168.7   3362.7   7.3225 26383.8
 01 09 2016  13 28  -15.5423 26169.8   3364.2   7.3253 26385.2
 01 09 2016  13 29  -15.5418 26172.5   3365.3   7.3269 26388.0
 01 09 2016  13 30  -15.5417 26174.7   3365.0   7.3256 26390.1
 01 09 2016  13 31  -15.5428 26175.5   3363.7   7.3226 26390.8
 01 09 2016  13 32  -15.5428 26175.2   3362.1   7.3193 26390.2
 01 09 2016  13 33  -15.5417 26176.1   3363.2   7.3214 26391.3
 01 09 2016  13 34  -15.5410 26179.0   3363.2   7.3205 26394.2
 01 09 2016  13 35  -15.5396 26182.4   3363.8   7.3210 26397.6
 01 09 2016  13 36  -15.5403 26184.4   3362.8   7.3183 26399.4
 01 09 2016  13 37  -15.5417 26184.6   3361.1   7.3146 26399.5
 01 09 2016  13 38  -15.5436 26184.1   3358.8   7.3099 26398.6
 01 09 2016  13 39  -15.5443 26184.2   3358.2   7.3084 26398.6
 01 09 2016  13 40  -15.5454 26184.6   3358.2   7.3084 26399.0
 01 09 2016  13 41  -15.5457 26185.6   3358.0   7.3077 26400.0
 01 09 2016  13 42  -15.5462 26186.2   3357.5   7.3064 26400.6
 01 09 2016  13 43  -15.5471 26186.3   3356.6   7.3044 26400.6
 01 09 2016  13 44  -15.5472 26186.4   3356.9   7.3052 26400.7
 01 09 2016  13 45  -15.5480 26186.2   3356.1   7.3034 26400.4
 01 09 2016  13 46  -15.5480 26186.8   3356.7   7.3045 26401.1
 01 09 2016  13 47  -15.5475 26187.8   3357.2   7.3054 26402.1
 01 09 2016  13 48  -15.5475 26188.0   3357.0   7.3048 26402.3
 01 09 2016  13 49  -15.5466 26189.8   3356.9   7.3041 26404.1
 01 09 2016  13 50  -15.5458 26192.3   3357.5   7.3048 26406.6
 01 09 2016  13 51  -15.5449 26194.3   3357.8   7.3048 26408.6
 01 09 2016  13 52  -15.5443 26196.1   3356.9   7.3024 26410.3
 01 09 2016  13 53  -15.5443 26197.2   3355.4   7.2988 26411.2
 01 09 2016  13 54  -15.5441 26198.8   3354.4   7.2962 26412.7
 01 09 2016  13 55  -15.5437 26200.1   3353.1   7.2931 26413.8
 01 09 2016  13 56  -15.5436 26201.2   3352.4   7.2914 26414.8
 01 09 2016  13 57  -15.5442 26200.3   3350.5   7.2874 26413.6
 01 09 2016  13 58  -15.5435 26201.1   3349.9   7.2858 26414.3
 01 09 2016  13 59  -15.5449 26201.3   3348.7   7.2833 26414.5
 01 09 2016  14 00  -15.5465 26198.4   3347.3   7.2810 26411.4
 01 09 2016  14 01  -15.5491 26196.3   3345.5   7.2777 26409.1
 01 09 2016  14 02  -15.5507 26193.6   3344.7   7.2769 26406.3
 01 09 2016  14 03  -15.5510 26192.6   3345.5   7.2787 26405.4
 01 09 2016  14 04  -15.5508 26191.6   3345.6   7.2793 26404.4
 01 09 2016  14 05  -15.5512 26191.6   3346.4   7.2811 26404.5
 01 09 2016  14 06  -15.5511 26191.8   3347.1   7.2824 26404.8
 01 09 2016  14 07  -15.5517 26191.9   3346.8   7.2818 26404.8
 01 09 2016  14 08  -15.5527 26191.5   3346.1   7.2803 26404.4
 01 09 2016  14 09  -15.5535 26190.9   3345.6   7.2795 26403.7
 01 09 2016  14 10  -15.5544 26189.7   3345.4   7.2793 26402.5
 01 09 2016  14 11  -15.5555 26188.6   3344.1   7.2769 26401.3
 01 09 2016  14 12  -15.5560 26186.8   3344.4   7.2781 26399.5
 01 09 2016  14 13  -15.5567 26186.8   3344.4   7.2781 26399.5
 01 09 2016  14 14  -15.5562 26187.8   3346.2   7.2816 26400.7
 01 09 2016  14 15  -15.5556 26188.6   3346.9   7.2828 26401.6
 01 09 2016  14 16  -15.5555 26188.7   3346.9   7.2829 26401.7
 01 09 2016  14 17  -15.5557 26188.2   3347.2   7.2836 26401.2
 01 09 2016  14 18  -15.5567 26187.2   3346.4   7.2823 26400.1
 01 09 2016  14 19  -15.5571 26188.2   3347.2   7.2836 26401.3
 01 09 2016  14 20  -15.5587 26188.2   3347.5   7.2843 26401.3
 01 09 2016  14 21  -15.5597 26187.9   3347.3   7.2840 26400.9
 01 09 2016  14 22  -15.5588 26188.9   3348.3   7.2858 26402.1
 01 09 2016  14 23  -15.5587 26190.3   3349.5   7.2880 26403.6
 01 09 2016  14 24  -15.5601 26191.2   3348.8   7.2863 26404.5
 01 09 2016  14 25  -15.5612 26191.5   3348.2   7.2850 26404.7
 01 09 2016  14 26  -15.5635 26190.9   3347.3   7.2831 26403.9
 01 09 2016  14 27  -15.5645 26189.8   3347.3   7.2834 26402.9
 01 09 2016  14 28  -15.5666 26188.3   3346.0   7.2811 26401.2
 01 09 2016  14 29  -15.5658 26188.6   3347.0   7.2831 26401.6
 01 09 2016  14 30  -15.5657 26189.0   3347.7   7.2845 26402.1
 01 09 2016  14 31  -15.5655 26189.3   3347.3   7.2835 26402.4
 01 09 2016  14 32  -15.5667 26189.0   3347.3   7.2836 26402.0
 01 09 2016  14 33  -15.5671 26188.7   3347.3   7.2838 26401.7
 01 09 2016  14 34  -15.5677 26188.3   3346.3   7.2817 26401.2
 01 09 2016  14 35  -15.5686 26187.1   3345.7   7.2808 26400.0
 01 09 2016  14 36  -15.5691 26186.4   3347.0   7.2838 26399.5
 01 09 2016  14 37  -15.5690 26185.8   3346.7   7.2832 26398.8
 01 09 2016  14 38  -15.5697 26184.3   3347.3   7.2849 26397.3
 01 09 2016  14 39  -15.5715 26182.6   3347.5   7.2858 26395.7
 01 09 2016  14 40  -15.5720 26182.2   3347.4   7.2857 26395.3
 01 09 2016  14 41  -15.5723 26181.7   3348.8   7.2889 26395.0
 01 09 2016  14 42  -15.5730 26180.6   3349.7   7.2911 26394.0
 01 09 2016  14 43  -15.5745 26180.3   3349.4   7.2906 26393.6
 01 09 2016  14 44  -15.5750 26180.2   3350.4   7.2928 26393.7
 01 09 2016  14 45  -15.5764 26179.1   3350.9   7.2941 26392.7
 01 09 2016  14 46  -15.5771 26178.2   3352.4   7.2975 26392.0
 01 09 2016  14 47  -15.5774 26177.9   3352.2   7.2973 26391.7
 01 09 2016  14 48  -15.5780 26177.6   3353.0   7.2991 26391.5
 01 09 2016  14 49  -15.5783 26177.8   3354.4   7.3020 26391.9
 01 09 2016  14 50  -15.5788 26176.8   3354.9   7.3034 26390.9
 01 09 2016  14 51  -15.5806 26175.6   3354.9   7.3038 26389.7
 01 09 2016  14 52  -15.5808 26175.0   3355.3   7.3048 26389.2
 01 09 2016  14 53  -15.5813 26174.9   3356.7   7.3078 26389.3
 01 09 2016  14 54  -15.5819 26174.0   3356.9   7.3084 26388.4
 01 09 2016  14 55  -15.5819 26173.6   3357.6   7.3101 26388.1
 01 09 2016  14 56  -15.5820 26173.1   3358.1   7.3113 26387.7
 01 09 2016  14 57  -15.5820 26172.4   3358.5   7.3123 26387.0
 01 09 2016  14 58  -15.5813 26172.7   3360.0   7.3154 26387.4
 01 09 2016  14 59  -15.5815 26172.6   3360.6   7.3169 26387.5
 01 09 2016  15 00  -15.5810 26172.7   3361.5   7.3188 26387.7
 01 09 2016  15 01  -15.5812 26173.4   3361.5   7.3185 26388.3
 01 09 2016  15 02  -15.5815 26173.5   3362.3   7.3202 26388.5
 01 09 2016  15 03  -15.5821 26173.6   3362.4   7.3204 26388.7
 01 09 2016  15 04  -15.5823 26173.9   3363.2   7.3220 26389.1
 01 09 2016  15 05  -15.5822 26174.6   3363.5   7.3224 26389.8
 01 09 2016  15 06  -15.5815 26175.0   3363.9   7.3232 26390.3
 01 09 2016  15 07  -15.5822 26174.9   3364.1   7.3238 26390.2
 01 09 2016  15 08  -15.5820 26175.0   3363.3   7.3219 26390.2
 01 09 2016  15 09  -15.5827 26174.8   3362.8   7.3210 26389.9
 01 09 2016  15 10  -15.5835 26174.1   3363.0   7.3215 26389.3
 01 09 2016  15 11  -15.5848 26173.3   3363.3   7.3224 26388.5
 01 09 2016  15 12  -15.5845 26173.2   3363.3   7.3225 26388.5
 01 09 2016  15 13  -15.5843 26172.7   3364.6   7.3255 26388.1
 01 09 2016  15 14  -15.5836 26172.1   3365.3   7.3271 26387.6
 01 09 2016  15 15  -15.5842 26172.3   3365.4   7.3272 26387.8
 01 09 2016  15 16  -15.5842 26172.1   3365.5   7.3276 26387.6
 01 09 2016  15 17  -15.5833 26171.5   3366.0   7.3287 26387.1
 01 09 2016  15 18  -15.5834 26171.4   3366.2   7.3293 26387.0
 01 09 2016  15 19  -15.5837 26171.3   3366.9   7.3308 26387.0
 01 09 2016  15 20  -15.5834 26171.7   3367.4   7.3316 26387.4
 01 09 2016  15 21  -15.5829 26172.3   3368.1   7.3331 26388.1
 01 09 2016  15 22  -15.5829 26172.4   3368.6   7.3340 26388.3
 01 09 2016  15 23  -15.5835 26172.7   3367.9   7.3325 26388.5
 01 09 2016  15 24  -15.5833 26172.9   3368.0   7.3327 26388.7
 01 09 2016  15 25  -15.5833 26172.7   3368.5   7.3339 26388.6
 01 09 2016  15 26  -15.5837 26172.1   3367.5   7.3318 26387.8
 01 09 2016  15 27  -15.5839 26171.5   3367.9   7.3328 26387.3
 01 09 2016  15 28  -15.5836 26171.2   3368.3   7.3338 26387.0
 01 09 2016  15 29  -15.5845 26171.2   3367.7   7.3324 26387.0
 01 09 2016  15 30  -15.5845 26170.9   3368.3   7.3339 26386.8
 01 09 2016  15 31  -15.5843 26170.8   3369.1   7.3355 26386.7
 01 09 2016  15 32  -15.5843 26170.4   3368.5   7.3344 26386.3
 01 09 2016  15 33  -15.5838 26170.1   3368.9   7.3353 26386.1
 01 09 2016  15 34  -15.5841 26169.9   3369.3   7.3363 26385.9
 01 09 2016  15 35  -15.5843 26170.3   3369.2   7.3360 26386.3
 01 09 2016  15 36  -15.5848 26170.7   3369.5   7.3366 26386.8
 01 09 2016  15 37  -15.5849 26171.3   3369.7   7.3368 26387.3
 01 09 2016  15 38  -15.5848 26171.6   3369.7   7.3367 26387.7
 01 09 2016  15 39  -15.5846 26172.6   3370.2   7.3375 26388.7
 01 09 2016  15 40  -15.5847 26173.1   3370.1   7.3371 26389.2
 01 09 2016  15 41  -15.5855 26173.5   3370.1   7.3370 26389.6
 01 09 2016  15 42  -15.5853 26174.0   3370.2   7.3372 26390.1
 01 09 2016  15 43  -15.5854 26174.5   3370.9   7.3384 26390.6
 01 09 2016  15 44  -15.5865 26174.8   3370.1   7.3367 26390.9
 01 09 2016  15 45  -15.5867 26175.0   3370.4   7.3373 26391.1
 01 09 2016  15 46  -15.5877 26175.2   3370.2   7.3368 26391.2
 01 09 2016  15 47  -15.5888 26174.6   3370.4   7.3375 26390.7
 01 09 2016  15 48  -15.5888 26174.2   3369.7   7.3359 26390.2
 01 09 2016  15 49  -15.5887 26173.4   3369.6   7.3360 26389.4
 01 09 2016  15 50  -15.5891 26172.3   3369.3   7.3357 26388.3
 01 09 2016  15 51  -15.5896 26171.5   3369.4   7.3361 26387.5
 01 09 2016  15 52  -15.5885 26171.2   3370.1   7.3377 26387.3
 01 09 2016  15 53  -15.5886 26170.8   3371.5   7.3409 26387.1
 01 09 2016  15 54  -15.5890 26170.6   3370.9   7.3395 26386.8
 01 09 2016  15 55  -15.5882 26170.4   3371.2   7.3402 26386.6
 01 09 2016  15 56  -15.5885 26169.7   3372.0   7.3421 26386.0
 01 09 2016  15 57  -15.5879 26169.8   3373.0   7.3444 26386.2
 01 09 2016  15 58  -15.5877 26169.7   3373.8   7.3461 26386.3
 01 09 2016  15 59  -15.5880 26169.7   3373.8   7.3461 26386.3
 01 09 2016  16 00  -15.5887 26169.6   3374.3   7.3471 26386.2
 01 09 2016  16 01  -15.5891 26169.1   3374.5   7.3478 26385.8
 01 09 2016  16 02  -15.5892 26168.6   3374.6   7.3482 26385.3
 01 09 2016  16 03  -15.5894 26168.1   3375.1   7.3493 26384.9
 01 09 2016  16 04  -15.5896 26167.8   3375.3   7.3499 26384.6
 01 09 2016  16 05  -15.5895 26167.7   3376.0   7.3514 26384.5
 01 09 2016  16 06  -15.5897 26167.7   3376.5   7.3525 26384.7
 01 09 2016  16 07  -15.5900 26167.6   3377.4   7.3543 26384.7
 01 09 2016  16 08  -15.5905 26167.3   3378.0   7.3558 26384.4
 01 09 2016  16 09  -15.5906 26166.8   3378.6   7.3571 26384.0
 01 09 2016  16 10  -15.5908 26166.2   3378.1   7.3564 26383.4
 01 09 2016  16 11  -15.5902 26165.8   3379.3   7.3589 26383.1
 01 09 2016  16 12  -15.5900 26165.4   3380.1   7.3607 26382.8
 01 09 2016  16 13  -15.5899 26165.0   3381.0   7.3628 26382.5
 01 09 2016  16 14  -15.5901 26165.1   3381.6   7.3642 26382.7
 01 09 2016  16 15  -15.5901 26165.0   3382.3   7.3656 26382.7
 01 09 2016  16 16  -15.5904 26164.8   3382.8   7.3669 26382.6
 01 09 2016  16 17  -15.5910 26164.1   3383.2   7.3679 26381.9
 01 09 2016  16 18  -15.5910 26163.1   3383.3   7.3684 26380.9
 01 09 2016  16 19  -15.5913 26161.8   3383.6   7.3694 26379.7
 01 09 2016  16 20  -15.5912 26160.5   3384.6   7.3718 26378.5
 01 09 2016  16 21  -15.5905 26159.9   3385.4   7.3738 26378.0
 01 09 2016  16 22  -15.5903 26159.6   3386.4   7.3760 26377.8
 01 09 2016  16 23  -15.5894 26159.4   3387.3   7.3780 26377.7
 01 09 2016  16 24  -15.5887 26159.0   3388.6   7.3808 26377.6
 01 09 2016  16 25  -15.5890 26158.7   3388.3   7.3804 26377.3
 01 09 2016  16 26  -15.5879 26158.9   3390.2   7.3843 26377.7
 01 09 2016  16 27  -15.5870 26159.3   3391.3   7.3867 26378.2
 01 09 2016  16 28  -15.5865 26159.6   3391.8   7.3876 26378.6
 01 09 2016  16 29  -15.5857 26159.9   3391.8   7.3875 26378.8
 01 09 2016  16 30  -15.5852 26160.2   3392.6   7.3892 26379.2
 01 09 2016  16 31  -15.5850 26160.4   3392.0   7.3879 26379.4
 01 09 2016  16 32  -15.5836 26160.6   3392.3   7.3884 26379.6
 01 09 2016  16 33  -15.5829 26160.7   3392.4   7.3886 26379.7
 01 09 2016  16 34  -15.5817 26160.8   3393.1   7.3901 26379.9
 01 09 2016  16 35  -15.5802 26160.3   3393.4   7.3909 26379.5
 01 09 2016  16 36  -15.5792 26159.6   3393.4   7.3910 26378.8
 01 09 2016  16 37  -15.5775 26159.5   3393.3   7.3910 26378.6
 01 09 2016  16 38  -15.5761 26159.7   3394.0   7.3924 26379.0
 01 09 2016  16 39  -15.5751 26160.2   3394.6   7.3935 26379.5
 01 09 2016  16 40  -15.5742 26160.3   3395.4   7.3953 26379.7
 01 09 2016  16 41  -15.5748 26159.9   3395.0   7.3944 26379.3
 01 09 2016  16 42  -15.5743 26159.3   3395.6   7.3959 26378.7
 01 09 2016  16 43  -15.5736 26159.1   3395.8   7.3964 26378.6
 01 09 2016  16 44  -15.5735 26158.4   3395.9   7.3968 26377.9
 01 09 2016  16 45  -15.5724 26157.6   3396.1   7.3974 26377.1
 01 09 2016  16 46  -15.5727 26156.6   3397.1   7.4000 26376.3
 01 09 2016  16 47  -15.5723 26155.9   3396.9   7.3996 26375.5
 01 09 2016  16 48  -15.5722 26154.8   3397.0   7.4003 26374.5
 01 09 2016  16 49  -15.5714 26154.1   3398.8   7.4043 26374.0
 01 09 2016  16 50  -15.5718 26155.0   3400.1   7.4068 26375.0
 01 09 2016  16 51  -15.5722 26155.6   3400.5   7.4074 26375.7
 01 09 2016  16 52  -15.5719 26155.0   3400.6   7.4079 26375.2
 01 09 2016  16 53  -15.5711 26154.7   3401.4   7.4096 26374.9
 01 09 2016  16 54  -15.5695 26154.7   3402.8   7.4127 26375.2
 01 09 2016  16 55  -15.5675 26155.7   3404.9   7.4169 26376.4
 01 09 2016  16 56  -15.5671 26156.9   3405.1   7.4170 26377.6
 01 09 2016  16 57  -15.5659 26158.1   3406.1   7.4189 26378.9
 01 09 2016  16 58  -15.5667 26158.9   3406.3   7.4190 26379.7
 01 09 2016  16 59  -15.5670 26159.5   3406.3   7.4190 26380.3
 01 09 2016  17 00  -15.5681 26158.8   3405.6   7.4176 26379.6
 01 09 2016  17 01  -15.5685 26157.9   3404.4   7.4153 26378.5
 01 09 2016  17 02  -15.5681 26156.7   3405.0   7.4168 26377.4
 01 09 2016  17 03  -15.5678 26155.6   3404.4   7.4159 26376.3
 01 09 2016  17 04  -15.5666 26155.2   3405.4   7.4182 26376.0
 01 09 2016  17 05  -15.5656 26155.5   3406.4   7.4202 26376.3
 01 09 2016  17 06  -15.5660 26155.7   3407.1   7.4218 26376.7
 01 09 2016  17 07  -15.5656 26155.9   3407.1   7.4217 26376.9
 01 09 2016  17 08  -15.5656 26155.0   3406.7   7.4210 26375.9
 01 09 2016  17 09  -15.5652 26153.6   3407.2   7.4225 26374.6
 01 09 2016  17 10  -15.5653 26151.7   3406.4   7.4213 26372.6
 01 09 2016  17 11  -15.5641 26151.1   3407.1   7.4231 26372.1
 01 09 2016  17 12  -15.5642 26150.7   3408.8   7.4269 26371.9
 01 09 2016  17 13  -15.5636 26150.6   3410.2   7.4299 26372.0
 01 09 2016  17 14  -15.5627 26150.0   3410.4   7.4303 26371.4
 01 09 2016  17 15  -15.5630 26149.4   3410.6   7.4310 26370.9
 01 09 2016  17 16  -15.5626 26149.3   3412.5   7.4351 26371.0
 01 09 2016  17 17  -15.5622 26149.0   3412.7   7.4357 26370.8
 01 09 2016  17 18  -15.5624 26149.0   3413.8   7.4380 26370.9
 01 09 2016  17 19  -15.5625 26148.9   3414.3   7.4390 26370.8
 01 09 2016  17 20  -15.5634 26149.0   3414.5   7.4396 26371.0
 01 09 2016  17 21  -15.5635 26148.8   3414.4   7.4394 26370.8
 01 09 2016  17 22  -15.5627 26148.0   3414.2   7.4391 26369.9
 01 09 2016  17 23  -15.5622 26146.9   3414.6   7.4404 26368.9
 01 09 2016  17 24  -15.5617 26146.6   3415.6   7.4425 26368.8
 01 09 2016  17 25  -15.5610 26145.8   3416.6   7.4450 26368.0
 01 09 2016  17 26  -15.5611 26145.5   3417.8   7.4476 26367.9
 01 09 2016  17 27  -15.5613 26145.9   3418.3   7.4486 26368.4
 01 09 2016  17 28  -15.5613 26146.2   3418.7   7.4494 26368.8
 01 09 2016  17 29  -15.5610 26146.7   3420.1   7.4522 26369.5
 01 09 2016  17 30  -15.5610 26146.5   3421.1   7.4544 26369.4
 01 09 2016  17 31  -15.5608 26146.2   3420.2   7.4525 26368.9
 01 09 2016  17 32  -15.5598 26146.6   3420.5   7.4532 26369.4
 01 09 2016  17 33  -15.5584 26147.6   3421.8   7.4556 26370.6
 01 09 2016  17 34  -15.5575 26148.4   3423.5   7.4590 26371.5
 01 09 2016  17 35  -15.5570 26149.4   3424.2   7.4603 26372.7
 01 09 2016  17 36  -15.5563 26151.9   3424.6   7.4604 26375.2
 01 09 2016  17 37  -15.5573 26154.0   3424.8   7.4603 26377.3
 01 09 2016  17 38  -15.5577 26154.7   3423.6   7.4574 26377.8
 01 09 2016  17 39  -15.5569 26154.2   3422.7   7.4557 26377.2
 01 09 2016  17 40  -15.5562 26153.8   3421.4   7.4531 26376.6
 01 09 2016  17 41  -15.5564 26153.9   3420.5   7.4510 26376.7
 01 09 2016  17 42  -15.5553 26154.1   3420.7   7.4514 26376.8
 01 09 2016  17 43  -15.5546 26154.1   3419.9   7.4497 26376.7
 01 09 2016  17 44  -15.5532 26155.5   3420.2   7.4500 26378.2
 01 09 2016  17 45  -15.5528 26156.0   3419.8   7.4490 26378.7
 01 09 2016  17 46  -15.5522 26155.4   3419.1   7.4477 26378.0
 01 09 2016  17 47  -15.5510 26155.3   3418.8   7.4469 26377.8
 01 09 2016  17 48  -15.5502 26155.1   3417.5   7.4442 26377.4
 01 09 2016  17 49  -15.5495 26154.2   3417.3   7.4440 26376.5
 01 09 2016  17 50  -15.5483 26152.9   3417.2   7.4443 26375.2
 01 09 2016  17 51  -15.5475 26151.8   3416.3   7.4427 26374.0
 01 09 2016  17 52  -15.5479 26150.0   3416.3   7.4431 26372.2
 01 09 2016  17 53  -15.5481 26148.8   3416.9   7.4447 26371.0
 01 09 2016  17 54  -15.5472 26147.2   3417.1   7.4457 26369.5
 01 09 2016  17 55  -15.5474 26145.9   3417.4   7.4465 26368.3
 01 09 2016  17 56  -15.5478 26144.6   3417.7   7.4477 26367.1
 01 09 2016  17 57  -15.5482 26144.4   3418.5   7.4495 26366.9
 01 09 2016  17 58  -15.5479 26143.1   3419.1   7.4512 26365.7
 01 09 2016  17 59  -15.5482 26141.3   3419.4   7.4523 26364.0
 01 09 2016  18 00  -15.5480 26140.5   3421.2   7.4564 26363.4
 01 09 2016  18 01  -15.5474 26139.4   3422.4   7.4592 26362.5
 01 09 2016  18 02  -15.5471 26138.2   3423.0   7.4609 26361.4
 01 09 2016  18 03  -15.5463 26136.6   3423.7   7.4628 26359.9
 01 09 2016  18 04  -15.5458 26134.4   3423.9   7.4638 26357.8
 01 09 2016  18 05  -15.5447 26132.5   3425.5   7.4679 26356.0
 01 09 2016  18 06  -15.5452 26131.7   3426.1   7.4694 26355.3
 01 09 2016  18 07  -15.5452 26131.8   3428.4   7.4743 26355.7
 01 09 2016  18 08  -15.5455 26131.6   3429.1   7.4760 26355.7
 01 09 2016  18 09  -15.5458 26131.4   3429.6   7.4769 26355.5
 01 09 2016  18 10  -15.5463 26130.4   3429.9   7.4778 26354.6
 01 09 2016  18 11  -15.5469 26129.2   3430.2   7.4788 26353.4
 01 09 2016  18 12  -15.5468 26128.3   3430.3   7.4793 26352.5
 01 09 2016  18 13  -15.5467 26127.3   3431.6   7.4826 26351.7
 01 09 2016  18 14  -15.5474 26126.8   3432.9   7.4853 26351.4
 01 09 2016  18 15  -15.5473 26126.6   3433.7   7.4872 26351.3
 01 09 2016  18 16  -15.5470 26126.0   3433.0   7.4859 26350.6
 01 09 2016  18 17  -15.5455 26125.6   3434.1   7.4883 26350.3
 01 09 2016  18 18  -15.5446 26124.6   3435.8   7.4923 26349.5
 01 09 2016  18 19  -15.5449 26124.7   3435.5   7.4915 26349.6
 01 09 2016  18 20  -15.5447 26124.8   3437.5   7.4958 26349.9
 01 09 2016  18 21  -15.5457 26124.6   3437.5   7.4960 26349.8
 01 09 2016  18 22  -15.5459 26124.4   3438.6   7.4983 26349.7
 01 09 2016  18 23  -15.5465 26124.3   3438.3   7.4978 26349.6
 01 09 2016  18 24  -15.5463 26124.1   3439.4   7.5002 26349.6
 01 09 2016  18 25  -15.5465 26123.7   3439.3   7.5002 26349.2
 01 09 2016  18 26  -15.5466 26123.9   3439.1   7.4996 26349.3
 01 09 2016  18 27  -15.5470 26124.3   3440.4   7.5022 26349.9
 01 09 2016  18 28  -15.5470 26124.5   3440.0   7.5015 26350.0
 01 09 2016  18 29  -15.5456 26124.1   3439.7   7.5009 26349.6
 01 09 2016  18 30  -15.5454 26123.7   3438.6   7.4986 26349.1
 01 09 2016  18 31  -15.5453 26124.0   3438.6   7.4985 26349.3
 01 09 2016  18 32  -15.5447 26124.1   3439.8   7.5010 26349.6
 01 09 2016  18 33  -15.5437 26124.3   3439.2   7.4997 26349.7
 01 09 2016  18 34  -15.5426 26124.7   3438.8   7.4988 26350.0
 01 09 2016  18 35  -15.5426 26124.7   3438.6   7.4982 26350.0
 01 09 2016  18 36  -15.5419 26124.5   3439.3   7.4999 26349.9
 01 09 2016  18 37  -15.5425 26124.2   3438.4   7.4980 26349.5
 01 09 2016  18 38  -15.5428 26123.4   3438.5   7.4985 26348.7
 01 09 2016  18 39  -15.5433 26122.3   3437.9   7.4975 26347.6
 01 09 2016  18 40  -15.5438 26121.5   3437.7   7.4973 26346.7
 01 09 2016  18 41  -15.5440 26121.1   3437.8   7.4976 26346.4
 01 09 2016  18 42  -15.5440 26120.6   3438.7   7.4998 26345.9
 01 09 2016  18 43  -15.5433 26119.9   3439.9   7.5024 26345.4
 01 09 2016  18 44  -15.5429 26119.3   3439.6   7.5019 26344.8
 01 09 2016  18 45  -15.5430 26119.1   3439.7   7.5022 26344.6
 01 09 2016  18 46  -15.5431 26119.3   3441.1   7.5053 26345.0
 01 09 2016  18 47  -15.5432 26119.3   3441.1   7.5053 26345.0
 01 09 2016  18 48  -15.5429 26119.7   3441.5   7.5059 26345.5
 01 09 2016  18 49  -15.5427 26120.5   3441.4   7.5056 26346.3
 01 09 2016  18 50  -15.5425 26120.8   3441.6   7.5060 26346.5
 01 09 2016  18 51  -15.5424 26121.4   3441.9   7.5065 26347.2
 01 09 2016  18 52  -15.5419 26122.4   3442.5   7.5074 26348.3
 01 09 2016  18 53  -15.5419 26123.1   3443.0   7.5083 26349.1
 01 09 2016  18 54  -15.5421 26123.4   3443.2   7.5086 26349.4
 01 09 2016  18 55  -15.5418 26123.7   3442.1   7.5062 26349.5
 01 09 2016  18 56  -15.5419 26124.2   3441.9   7.5056 26349.9
 01 09 2016  18 57  -15.5418 26124.5   3441.8   7.5053 26350.2
 01 09 2016  18 58  -15.5411 26124.0   3440.7   7.5031 26349.7
 01 09 2016  18 59  -15.5413 26123.7   3439.3   7.5001 26349.1
 01 09 2016  19 00  -15.5410 26123.8   3438.8   7.4991 26349.1
 01 09 2016  19 01  -15.5411 26124.3   3438.6   7.4985 26349.6
 01 09 2016  19 02  -15.5416 26125.1   3437.6   7.4960 26350.3
 01 09 2016  19 03  -15.5421 26125.3   3437.1   7.4949 26350.4
 01 09 2016  19 04  -15.5425 26125.9   3435.6   7.4914 26350.8
 01 09 2016  19 05  -15.5422 26125.8   3434.9   7.4900 26350.6
 01 09 2016  19 06  -15.5426 26125.3   3434.5   7.4893 26350.1
 01 09 2016  19 07  -15.5432 26125.1   3432.9   7.4858 26349.7
 01 09 2016  19 08  -15.5431 26124.9   3432.9   7.4860 26349.5
 01 09 2016  19 09  -15.5435 26124.5   3431.6   7.4832 26348.9
 01 09 2016  19 10  -15.5429 26124.2   3430.8   7.4816 26348.5
 01 09 2016  19 11  -15.5426 26123.5   3429.8   7.4797 26347.7
 01 09 2016  19 12  -15.5424 26123.1   3429.7   7.4796 26347.3
 01 09 2016  19 13  -15.5434 26122.4   3429.3   7.4788 26346.5
 01 09 2016  19 14  -15.5432 26121.4   3428.2   7.4769 26345.4
 01 09 2016  19 15  -15.5425 26120.4   3427.8   7.4763 26344.3
 01 09 2016  19 16  -15.5413 26119.9   3427.8   7.4764 26343.8
 01 09 2016  19 17  -15.5409 26119.9   3428.6   7.4781 26344.0
 01 09 2016  19 18  -15.5407 26119.6   3429.3   7.4797 26343.7
 01 09 2016  19 19  -15.5404 26118.4   3428.1   7.4775 26342.4
 01 09 2016  19 20  -15.5395 26116.6   3427.7   7.4771 26340.5
 01 09 2016  19 21  -15.5384 26115.0   3427.9   7.4781 26339.0
 01 09 2016  19 22  -15.5371 26114.3   3428.6   7.4798 26338.4
 01 09 2016  19 23  -15.5372 26114.3   3428.7   7.4798 26338.5
 01 09 2016  19 24  -15.5369 26114.2   3429.5   7.4816 26338.5
 01 09 2016  19 25  -15.5369 26113.5   3429.8   7.4825 26337.7
 01 09 2016  19 26  -15.5370 26112.3   3429.8   7.4828 26336.6
 01 09 2016  19 27  -15.5374 26111.0   3428.4   7.4803 26335.2
 01 09 2016  19 28  -15.5370 26110.7   3429.4   7.4824 26335.0
 01 09 2016  19 29  -15.5361 26110.9   3430.3   7.4843 26335.3
 01 09 2016  19 30  -15.5360 26110.4   3431.0   7.4859 26334.9
 01 09 2016  19 31  -15.5366 26109.6   3430.8   7.4858 26334.1
 01 09 2016  19 32  -15.5364 26108.2   3430.3   7.4851 26332.6
 01 09 2016  19 33  -15.5355 26106.6   3431.2   7.4875 26331.1
 01 09 2016  19 34  -15.5349 26103.9   3431.0   7.4878 26328.4
 01 09 2016  19 35  -15.5349 26102.4   3431.5   7.4894 26327.0
 01 09 2016  19 36  -15.5362 26101.7   3432.1   7.4908 26326.4
 01 09 2016  19 37  -15.5374 26100.3   3431.9   7.4907 26325.0
 01 09 2016  19 38  -15.5381 26098.2   3431.0   7.4893 26322.7
 01 09 2016  19 39  -15.5389 26095.4   3430.2   7.4885 26319.9
 01 09 2016  19 40  -15.5389 26092.3   3428.7   7.4862 26316.6
 01 09 2016  19 41  -15.5389 26091.1   3429.8   7.4889 26315.5
 01 09 2016  19 42  -15.5396 26091.0   3429.7   7.4888 26315.5
 01 09 2016  19 43  -15.5398 26090.6   3430.3   7.4902 26315.2
 01 09 2016  19 44  -15.5396 26090.9   3431.1   7.4917 26315.5
 01 09 2016  19 45  -15.5391 26090.6   3430.9   7.4914 26315.2
 01 09 2016  19 46  -15.5385 26090.7   3430.9   7.4914 26315.3
 01 09 2016  19 47  -15.5379 26090.6   3431.0   7.4915 26315.2
 01 09 2016  19 48  -15.5372 26091.1   3431.1   7.4917 26315.7
 01 09 2016  19 49  -15.5365 26091.8   3431.6   7.4926 26316.4
 01 09 2016  19 50  -15.5363 26093.1   3431.7   7.4925 26317.8
 01 09 2016  19 51  -15.5360 26094.1   3432.1   7.4930 26318.8
 01 09 2016  19 52  -15.5356 26094.6   3431.8   7.4922 26319.3
 01 09 2016  19 53  -15.5351 26095.2   3431.6   7.4916 26319.9
 01 09 2016  19 54  -15.5349 26095.9   3431.4   7.4910 26320.6
 01 09 2016  19 55  -15.5351 26097.4   3431.5   7.4906 26322.1
 01 09 2016  19 56  -15.5354 26099.1   3431.5   7.4903 26323.7
 01 09 2016  19 57  -15.5352 26099.8   3430.9   7.4887 26324.4
 01 09 2016  19 58  -15.5341 26100.4   3430.7   7.4881 26324.9
 01 09 2016  19 59  -15.5339 26099.6   3429.7   7.4863 26324.0
 01 09 2016  20 00  -15.5341 26098.9   3428.8   7.4846 26323.2
 01 09 2016  20 01  -15.5341 26098.0   3428.2   7.4834 26322.2
 01 09 2016  20 02  -15.5345 26098.1   3428.0   7.4830 26322.3
 01 09 2016  20 03  -15.5345 26097.6   3427.7   7.4825 26321.8
 01 09 2016  20 04  -15.5351 26097.7   3427.4   7.4818 26321.8
 01 09 2016  20 05  -15.5355 26096.9   3426.5   7.4801 26320.9
 01 09 2016  20 06  -15.5358 26095.9   3425.7   7.4786 26319.8
 01 09 2016  20 07  -15.5360 26096.0   3425.6   7.4784 26319.9
 01 09 2016  20 08  -15.5363 26095.8   3426.1   7.4795 26319.7
 01 09 2016  20 09  -15.5373 26094.9   3424.8   7.4771 26318.6
 01 09 2016  20 10  -15.5377 26094.2   3424.3   7.4760 26318.0
 01 09 2016  20 11  -15.5378 26093.9   3424.1   7.4757 26317.6
 01 09 2016  20 12  -15.5377 26093.5   3423.8   7.4753 26317.2
 01 09 2016  20 13  -15.5388 26092.9   3423.5   7.4748 26316.5
 01 09 2016  20 14  -15.5389 26092.2   3423.0   7.4739 26315.7
 01 09 2016  20 15  -15.5394 26092.2   3423.5   7.4750 26315.9
 01 09 2016  20 16  -15.5406 26092.1   3422.7   7.4733 26315.6
 01 09 2016  20 17  -15.5412 26091.1   3422.1   7.4722 26314.5
 01 09 2016  20 18  -15.5410 26089.8   3421.6   7.4715 26313.2
 01 09 2016  20 19  -15.5407 26088.3   3421.1   7.4710 26311.6
 01 09 2016  20 20  -15.5409 26087.6   3420.8   7.4703 26311.0
 01 09 2016  20 21  -15.5404 26086.8   3420.6   7.4701 26310.1
 01 09 2016  20 22  -15.5408 26086.2   3420.6   7.4705 26309.5
 01 09 2016  20 23  -15.5403 26086.1   3421.0   7.4712 26309.5
 01 09 2016  20 24  -15.5408 26085.9   3420.0   7.4693 26309.2
 01 09 2016  20 25  -15.5416 26085.7   3420.3   7.4698 26309.0
 01 09 2016  20 26  -15.5418 26085.9   3420.0   7.4691 26309.1
 01 09 2016  20 27  -15.5425 26085.5   3420.3   7.4700 26308.8
 01 09 2016  20 28  -15.5427 26084.8   3420.6   7.4708 26308.1
 01 09 2016  20 29  -15.5432 26083.5   3419.8   7.4695 26306.7
 01 09 2016  20 30  -15.5433 26082.5   3419.2   7.4684 26305.7
 01 09 2016  20 31  -15.5432 26082.1   3419.1   7.4683 26305.3
 01 09 2016  20 32  -15.5425 26081.8   3419.7   7.4696 26305.0
 01 09 2016  20 33  -15.5424 26080.9   3419.6   7.4697 26304.2
 01 09 2016  20 34  -15.5420 26080.6   3419.5   7.4696 26303.8
 01 09 2016  20 35  -15.5422 26080.5   3419.4   7.4695 26303.7
 01 09 2016  20 36  -15.5417 26080.4   3419.5   7.4696 26303.6
 01 09 2016  20 37  -15.5409 26080.3   3419.6   7.4699 26303.6
 01 09 2016  20 38  -15.5402 26079.6   3419.0   7.4689 26302.8
 01 09 2016  20 39  -15.5395 26079.2   3419.4   7.4697 26302.4
 01 09 2016  20 40  -15.5385 26079.1   3419.7   7.4703 26302.4
 01 09 2016  20 41  -15.5372 26078.2   3419.1   7.4694 26301.4
 01 09 2016  20 42  -15.5352 26077.7   3419.5   7.4704 26300.9
 01 09 2016  20 43  -15.5336 26077.2   3419.9   7.4715 26300.5
 01 09 2016  20 44  -15.5327 26076.6   3419.9   7.4716 26299.9
 01 09 2016  20 45  -15.5319 26076.4   3420.5   7.4730 26299.8
 01 09 2016  20 46  -15.5317 26076.8   3421.1   7.4740 26300.3
 01 09 2016  20 47  -15.5317 26076.7   3421.3   7.4745 26300.2
 01 09 2016  20 48  -15.5315 26076.4   3421.3   7.4747 26299.9
 01 09 2016  20 49  -15.5318 26076.6   3421.9   7.4758 26300.1
 01 09 2016  20 50  -15.5318 26077.0   3422.7   7.4774 26300.7
 01 09 2016  20 51  -15.5319 26077.1   3422.1   7.4762 26300.6
 01 09 2016  20 52  -15.5320 26077.3   3422.6   7.4773 26301.0
 01 09 2016  20 53  -15.5324 26077.6   3423.0   7.4780 26301.3
 01 09 2016  20 54  -15.5332 26078.2   3423.4   7.4786 26301.9
 01 09 2016  20 55  -15.5340 26078.6   3423.5   7.4788 26302.3
 01 09 2016  20 56  -15.5345 26078.9   3423.6   7.4790 26302.7
 01 09 2016  20 57  -15.5347 26079.8   3424.1   7.4797 26303.6
 01 09 2016  20 58  -15.5349 26081.3   3424.9   7.4810 26305.2
 01 09 2016  20 59  -15.5355 26082.4   3425.3   7.4816 26306.4
 01 09 2016  21 00  -15.5364 26083.3   3425.2   7.4812 26307.2
 01 09 2016  21 01  -15.5368 26084.5   3425.6   7.4817 26308.5
 01 09 2016  21 02  -15.5372 26084.7   3425.3   7.4810 26308.6
 01 09 2016  21 03  -15.5375 26084.7   3425.1   7.4805 26308.6
 01 09 2016  21 04  -15.5381 26084.6   3424.8   7.4799 26308.5
 01 09 2016  21 05  -15.5384 26084.2   3424.5   7.4793 26308.0
 01 09 2016  21 06  -15.5389 26083.2   3423.8   7.4780 26306.9
 01 09 2016  21 07  -15.5391 26081.1   3422.6   7.4762 26304.8
 01 09 2016  21 08  -15.5385 26080.0   3422.4   7.4760 26303.5
 01 09 2016  21 09  -15.5378 26079.4   3421.8   7.4749 26302.9
 01 09 2016  21 10  -15.5374 26079.5   3422.7   7.4769 26303.2
 01 09 2016  21 11  -15.5375 26079.7   3423.1   7.4776 26303.4
 01 09 2016  21 12  -15.5375 26079.5   3422.9   7.4773 26303.1
 01 09 2016  21 13  -15.5372 26079.6   3423.1   7.4776 26303.3
 01 09 2016  21 14  -15.5374 26079.7   3423.2   7.4779 26303.4
 01 09 2016  21 15  -15.5376 26080.5   3423.8   7.4789 26304.3
 01 09 2016  21 16  -15.5383 26081.0   3424.0   7.4792 26304.8
 01 09 2016  21 17  -15.5390 26081.4   3424.1   7.4794 26305.2
 01 09 2016  21 18  -15.5401 26081.9   3424.2   7.4794 26305.7
 01 09 2016  21 19  -15.5412 26082.3   3424.3   7.4796 26306.1
 01 09 2016  21 20  -15.5424 26082.9   3424.5   7.4797 26306.8
 01 09 2016  21 21  -15.5430 26084.2   3425.2   7.4810 26308.1
 01 09 2016  21 22  -15.5441 26084.8   3425.2   7.4806 26308.8
 01 09 2016  21 23  -15.5451 26084.9   3425.0   7.4803 26308.8
 01 09 2016  21 24  -15.5457 26084.3   3424.5   7.4794 26308.1
 01 09 2016  21 25  -15.5459 26083.5   3424.1   7.4786 26307.3
 01 09 2016  21 26  -15.5459 26083.1   3423.6   7.4778 26306.8
 01 09 2016  21 27  -15.5452 26082.9   3424.2   7.4791 26306.7
 01 09 2016  21 28  -15.5445 26082.7   3423.6   7.4780 26306.4
 01 09 2016  21 29  -15.5443 26082.3   3423.3   7.4773 26305.9
 01 09 2016  21 30  -15.5436 26081.2   3423.4   7.4780 26304.9
 01 09 2016  21 31  -15.5433 26079.5   3422.8   7.4771 26303.1
 01 09 2016  21 32  -15.5431 26078.1   3421.3   7.4741 26301.5
 01 09 2016  21 33  -15.5418 26077.0   3422.0   7.4760 26300.6
 01 09 2016  21 34  -15.5406 26075.9   3421.0   7.4741 26299.3
 01 09 2016  21 35  -15.5394 26074.4   3421.3   7.4753 26297.9
 01 09 2016  21 36  -15.5384 26073.5   3421.1   7.4750 26297.0
 01 09 2016  21 37  -15.5373 26072.8   3421.9   7.4770 26296.4
 01 09 2016  21 38  -15.5356 26072.6   3422.6   7.4786 26296.3
 01 09 2016  21 39  -15.5345 26072.5   3422.4   7.4782 26296.1
 01 09 2016  21 40  -15.5333 26072.4   3422.8   7.4791 26296.2
 01 09 2016  21 41  -15.5325 26072.6   3422.5   7.4783 26296.3
 01 09 2016  21 42  -15.5321 26072.9   3422.6   7.4786 26296.6
 01 09 2016  21 43  -15.5314 26073.4   3423.9   7.4812 26297.2
 01 09 2016  21 44  -15.5315 26073.7   3423.1   7.4793 26297.4
 01 09 2016  21 45  -15.5309 26073.9   3424.8   7.4828 26297.9
 01 09 2016  21 46  -15.5301 26074.2   3424.4   7.4819 26298.1
 01 09 2016  21 47  -15.5297 26074.1   3424.0   7.4812 26298.0
 01 09 2016  21 48  -15.5294 26074.2   3424.0   7.4812 26298.1
 01 09 2016  21 49  -15.5297 26074.5   3424.4   7.4819 26298.4
 01 09 2016  21 50  -15.5298 26075.0   3424.2   7.4813 26298.9
 01 09 2016  21 51  -15.5291 26075.4   3424.8   7.4826 26299.4
 01 09 2016  21 52  -15.5292 26075.7   3424.4   7.4815 26299.6
 01 09 2016  21 53  -15.5287 26076.3   3424.9   7.4826 26300.3
 01 09 2016  21 54  -15.5281 26076.9   3425.2   7.4830 26300.9
 01 09 2016  21 55  -15.5282 26078.2   3426.0   7.4843 26302.3
 01 09 2016  21 56  -15.5276 26079.5   3425.9   7.4838 26303.6
 01 09 2016  21 57  -15.5275 26080.3   3426.1   7.4839 26304.3
 01 09 2016  21 58  -15.5274 26080.9   3426.2   7.4839 26305.0
 01 09 2016  21 59  -15.5272 26081.3   3426.0   7.4834 26305.4
 01 09 2016  22 00  -15.5271 26082.0   3426.1   7.4834 26306.0
 01 09 2016  22 01  -15.5271 26083.0   3426.3   7.4837 26307.1
 01 09 2016  22 02  -15.5270 26083.7   3426.3   7.4833 26307.7
 01 09 2016  22 03  -15.5268 26084.2   3426.8   7.4843 26308.3
 01 09 2016  22 04  -15.5264 26084.9   3426.8   7.4842 26309.0
 01 09 2016  22 05  -15.5255 26085.7   3426.8   7.4840 26309.8
 01 09 2016  22 06  -15.5249 26086.4   3427.1   7.4844 26310.6
 01 09 2016  22 07  -15.5243 26087.2   3427.0   7.4840 26311.3
 01 09 2016  22 08  -15.5239 26087.5   3426.9   7.4836 26311.7
 01 09 2016  22 09  -15.5238 26087.8   3426.9   7.4835 26311.9
 01 09 2016  22 10  -15.5236 26088.2   3426.8   7.4831 26312.3
 01 09 2016  22 11  -15.5240 26088.8   3426.7   7.4829 26312.9
 01 09 2016  22 12  -15.5240 26089.6   3426.9   7.4830 26313.7
 01 09 2016  22 13  -15.5240 26090.2   3426.8   7.4826 26314.3
 01 09 2016  22 14  -15.5240 26090.8   3426.6   7.4820 26314.8
 01 09 2016  22 15  -15.5238 26091.6   3426.8   7.4822 26315.7
 01 09 2016  22 16  -15.5238 26092.0   3426.6   7.4816 26316.1
 01 09 2016  22 17  -15.5236 26092.5   3426.5   7.4813 26316.5
 01 09 2016  22 18  -15.5241 26092.5   3426.2   7.4806 26316.5
 01 09 2016  22 19  -15.5251 26092.6   3425.5   7.4792 26316.5
 01 09 2016  22 20  -15.5250 26092.5   3425.6   7.4794 26316.5
 01 09 2016  22 21  -15.5261 26092.3   3424.9   7.4781 26316.1
 01 09 2016  22 22  -15.5272 26091.7   3425.3   7.4791 26315.6
 01 09 2016  22 23  -15.5271 26091.4   3424.8   7.4779 26315.2
 01 09 2016  22 24  -15.5281 26090.4   3423.9   7.4764 26314.1
 01 09 2016  22 25  -15.5284 26089.4   3424.0   7.4769 26313.2
 01 09 2016  22 26  -15.5287 26088.7   3423.7   7.4764 26312.3
 01 09 2016  22 27  -15.5291 26087.8   3422.7   7.4744 26311.4
 01 09 2016  22 28  -15.5291 26087.2   3423.2   7.4757 26310.8
 01 09 2016  22 29  -15.5291 26086.6   3422.7   7.4749 26310.2
 01 09 2016  22 30  -15.5284 26085.9   3422.9   7.4753 26309.5
 01 09 2016  22 31  -15.5276 26085.0   3422.6   7.4751 26308.6
 01 09 2016  22 32  -15.5271 26084.0   3422.3   7.4747 26307.5
 01 09 2016  22 33  -15.5265 26083.4   3422.4   7.4750 26307.0
 01 09 2016  22 34  -15.5262 26083.2   3422.5   7.4753 26306.8
 01 09 2016  22 35  -15.5258 26082.9   3422.7   7.4759 26306.5
 01 09 2016  22 36  -15.5256 26082.7   3422.8   7.4761 26306.3
 01 09 2016  22 37  -15.5255 26082.4   3422.8   7.4763 26306.0
 01 09 2016  22 38  -15.5252 26082.2   3422.9   7.4766 26305.8
 01 09 2016  22 39  -15.5249 26082.1   3423.1   7.4770 26305.7
 01 09 2016  22 40  -15.5244 26082.0   3423.9   7.4787 26305.8
 01 09 2016  22 41  -15.5240 26082.3   3423.1   7.4768 26306.0
 01 09 2016  22 42  -15.5235 26082.3   3424.6   7.4802 26306.1
 01 09 2016  22 43  -15.5227 26082.7   3424.0   7.4788 26306.5
 01 09 2016  22 44  -15.5221 26082.7   3424.2   7.4793 26306.5
 01 09 2016  22 45  -15.5219 26082.3   3424.3   7.4795 26306.2
 01 09 2016  22 46  -15.5223 26081.6   3423.8   7.4785 26305.4
 01 09 2016  22 47  -15.5228 26080.9   3423.7   7.4785 26304.6
 01 09 2016  22 48  -15.5231 26080.4   3423.5   7.4782 26304.1
 01 09 2016  22 49  -15.5238 26080.2   3422.4   7.4760 26303.8
 01 09 2016  22 50  -15.5237 26079.9   3423.8   7.4790 26303.7
 01 09 2016  22 51  -15.5228 26080.4   3423.3   7.4778 26304.1
 01 09 2016  22 52  -15.5223 26080.6   3423.9   7.4792 26304.4
 01 09 2016  22 53  -15.5223 26080.5   3423.5   7.4783 26304.3
 01 09 2016  22 54  -15.5229 26080.3   3423.1   7.4775 26303.9
 01 09 2016  22 55  -15.5221 26080.2   3424.3   7.4801 26304.0
 01 09 2016  22 56  -15.5219 26080.4   3425.4   7.4825 26304.4
 01 09 2016  22 57  -15.5212 26081.5   3425.3   7.4819 26305.4
 01 09 2016  22 58  -15.5207 26082.0   3425.0   7.4812 26306.0
 01 09 2016  22 59  -15.5201 26082.3   3424.9   7.4808 26306.2
 01 09 2016  23 00  -15.5188 26082.5   3425.7   7.4826 26306.5
 01 09 2016  23 01  -15.5187 26082.7   3424.7   7.4803 26306.6
 01 09 2016  23 02  -15.5192 26082.9   3424.5   7.4797 26306.8
 01 09 2016  23 03  -15.5194 26082.5   3424.7   7.4804 26306.4
 01 09 2016  23 04  -15.5201 26083.1   3424.6   7.4799 26307.0
 01 09 2016  23 05  -15.5202 26083.0   3425.6   7.4821 26307.0
 01 09 2016  23 06  -15.5210 26083.6   3424.8   7.4802 26307.4
 01 09 2016  23 07  -15.5202 26084.5   3425.4   7.4813 26308.4
 01 09 2016  23 08  -15.5197 26085.5   3426.3   7.4828 26309.6
 01 09 2016  23 09  -15.5190 26087.3   3427.1   7.4841 26311.5
 01 09 2016  23 10  -15.5183 26089.1   3427.7   7.4850 26313.3
 01 09 2016  23 11  -15.5177 26090.0   3428.5   7.4864 26314.3
 01 09 2016  23 12  -15.5174 26090.7   3428.0   7.4852 26314.9
 01 09 2016  23 13  -15.5176 26090.9   3427.9   7.4848 26315.1
 01 09 2016  23 14  -15.5183 26091.0   3427.2   7.4833 26315.1
 01 09 2016  23 15  -15.5182 26091.6   3427.6   7.4839 26315.8
 01 09 2016  23 16  -15.5199 26092.0   3426.7   7.4818 26316.0
 01 09 2016  23 17  -15.5195 26094.0   3426.5   7.4809 26318.0
 01 09 2016  23 18  -15.5202 26095.0   3426.9   7.4815 26319.1
 01 09 2016  23 19  -15.5217 26096.0   3426.0   7.4794 26319.9
 01 09 2016  23 20  -15.5222 26097.6   3426.6   7.4801 26321.6
 01 09 2016  23 21  -15.5229 26097.6   3427.4   7.4819 26321.8
 01 09 2016  23 22  -15.5232 26098.2   3426.9   7.4807 26322.3
 01 09 2016  23 23  -15.5235 26098.0   3427.0   7.4808 26322.1
 01 09 2016  23 24  -15.5245 26097.4   3425.3   7.4773 26321.2
 01 09 2016  23 25  -15.5244 26096.3   3424.2   7.4753 26320.0
 01 09 2016  23 26  -15.5247 26096.1   3425.1   7.4772 26319.9
 01 09 2016  23 27  -15.5230 26096.1   3425.9   7.4791 26320.0
 01 09 2016  23 28  -15.5231 26094.9   3425.2   7.4778 26318.7
 01 09 2016  23 29  -15.5215 26094.1   3424.6   7.4767 26317.9
 01 09 2016  23 30  -15.5209 26093.9   3424.6   7.4768 26317.7
 01 09 2016  23 31  -15.5205 26092.5   3424.0   7.4759 26316.2
 01 09 2016  23 32  -15.5197 26091.6   3423.9   7.4760 26315.3
 01 09 2016  23 33  -15.5187 26091.1   3424.0   7.4764 26314.8
 01 09 2016  23 34  -15.5174 26089.6   3423.5   7.4758 26313.3
 01 09 2016  23 35  -15.5156 26089.7   3424.0   7.4768 26313.4
 01 09 2016  23 36  -15.5139 26089.0   3423.9   7.4768 26312.7
 01 09 2016  23 37  -15.5128 26088.7   3424.1   7.4773 26312.4
 01 09 2016  23 38  -15.5114 26088.9   3424.5   7.4781 26312.7
 01 09 2016  23 39  -15.5111 26088.3   3424.7   7.4786 26312.1
 01 09 2016  23 40  -15.5113 26088.1   3424.4   7.4780 26311.9
 01 09 2016  23 41  -15.5113 26088.9   3425.1   7.4793 26312.7
 01 09 2016  23 42  -15.5105 26089.4   3426.1   7.4812 26313.4
 01 09 2016  23 43  -15.5094 26090.6   3424.8   7.4783 26314.4
 01 09 2016  23 44  -15.5093 26090.7   3425.5   7.4798 26314.7
 01 09 2016  23 45  -15.5083 26092.3   3425.2   7.4787 26316.2
 01 09 2016  23 46  -15.5070 26093.9   3427.0   7.4819 26317.9
 01 09 2016  23 47  -15.5058 26095.4   3427.2   7.4821 26319.5
 01 09 2016  23 48  -15.5054 26097.2   3427.2   7.4814 26321.2
 01 09 2016  23 49  -15.5061 26099.5   3427.1   7.4808 26323.5
 01 09 2016  23 50  -15.5070 26101.3   3428.3   7.4828 26325.5
 01 09 2016  23 51  -15.5070 26102.9   3428.6   7.4829 26327.1
 01 09 2016  23 52  -15.5088 26104.5   3428.0   7.4812 26328.6
 01 09 2016  23 53  -15.5090 26106.2   3428.2   7.4812 26330.3
 01 09 2016  23 54  -15.5095 26107.3   3427.9   7.4801 26331.4
 01 09 2016  23 55  -15.5106 26108.3   3427.6   7.4792 26332.4
 01 09 2016  23 56  -15.5109 26109.1   3426.3   7.4761 26333.0
 01 09 2016  23 57  -15.5124 26108.3   3425.7   7.4751 26332.1
 01 09 2016  23 58  -15.5141 26108.2   3425.1   7.4738 26331.9
 01 09 2016  23 59  -15.5151 26108.2   3425.0   7.4736 26331.9
