Manaus - AM                    UNIVAP-03  <215> 1 Min. Reported data

 DD MM YYYY  HH MM   D(Deg)  H(nT)   Z(nT)   I(Deg)   F(nT)

 02 08 2016  00 00  -15.5129 26153.5   3439.4   7.4918 26378.6
 02 08 2016  00 01  -15.5132 26153.3   3439.6   7.4923 26378.5
 02 08 2016  00 02  -15.5131 26153.6   3439.8   7.4927 26378.8
 02 08 2016  00 03  -15.5128 26153.8   3439.9   7.4929 26379.1
 02 08 2016  00 04  -15.5127 26153.9   3440.1   7.4934 26379.1
 02 08 2016  00 05  -15.5121 26154.0   3440.1   7.4932 26379.3
 02 08 2016  00 06  -15.5120 26154.1   3440.0   7.4929 26379.4
 02 08 2016  00 07  -15.5121 26154.1   3440.0   7.4931 26379.3
 02 08 2016  00 08  -15.5118 26154.1   3440.0   7.4930 26379.4
 02 08 2016  00 09  -15.5120 26154.1   3439.7   7.4923 26379.3
 02 08 2016  00 10  -15.5116 26154.1   3439.8   7.4925 26379.4
 02 08 2016  00 11  -15.5121 26154.0   3439.9   7.4929 26379.2
 02 08 2016  00 12  -15.5121 26154.1   3439.6   7.4921 26379.3
 02 08 2016  00 13  -15.5120 26154.1   3439.7   7.4925 26379.3
 02 08 2016  00 14  -15.5115 26154.1   3439.9   7.4927 26379.3
 02 08 2016  00 15  -15.5114 26154.0   3440.0   7.4931 26379.3
 02 08 2016  00 16  -15.5117 26153.9   3439.3   7.4917 26379.0
 02 08 2016  00 17  -15.5116 26153.8   3439.8   7.4926 26379.1
 02 08 2016  00 18  -15.5115 26153.7   3439.5   7.4920 26378.9
 02 08 2016  00 19  -15.5116 26153.6   3439.7   7.4926 26378.8
 02 08 2016  00 20  -15.5111 26153.7   3439.4   7.4919 26378.8
 02 08 2016  00 21  -15.5111 26153.5   3439.9   7.4928 26378.8
 02 08 2016  00 22  -15.5113 26153.5   3439.3   7.4916 26378.6
 02 08 2016  00 23  -15.5115 26153.3   3439.5   7.4921 26378.5
 02 08 2016  00 24  -15.5112 26153.3   3439.8   7.4927 26378.5
 02 08 2016  00 25  -15.5109 26153.2   3439.5   7.4922 26378.4
 02 08 2016  00 26  -15.5110 26153.0   3439.8   7.4929 26378.2
 02 08 2016  00 27  -15.5111 26152.8   3439.0   7.4913 26377.9
 02 08 2016  00 28  -15.5110 26152.5   3439.0   7.4914 26377.6
 02 08 2016  00 29  -15.5109 26152.0   3438.9   7.4913 26377.2
 02 08 2016  00 30  -15.5108 26151.6   3439.0   7.4916 26376.8
 02 08 2016  00 31  -15.5108 26151.5   3439.2   7.4920 26376.7
 02 08 2016  00 32  -15.5105 26151.6   3439.4   7.4925 26376.8
 02 08 2016  00 33  -15.5105 26151.8   3439.5   7.4927 26377.0
 02 08 2016  00 34  -15.5101 26152.2   3439.7   7.4928 26377.4
 02 08 2016  00 35  -15.5098 26152.3   3440.0   7.4935 26377.6
 02 08 2016  00 36  -15.5097 26152.3   3439.9   7.4933 26377.5
 02 08 2016  00 37  -15.5098 26152.2   3439.6   7.4928 26377.4
 02 08 2016  00 38  -15.5098 26152.1   3439.5   7.4925 26377.3
 02 08 2016  00 39  -15.5098 26151.9   3439.9   7.4934 26377.2
 02 08 2016  00 40  -15.5091 26152.0   3439.3   7.4921 26377.2
 02 08 2016  00 41  -15.5094 26151.6   3439.2   7.4919 26376.8
 02 08 2016  00 42  -15.5100 26151.3   3438.7   7.4910 26376.4
 02 08 2016  00 43  -15.5103 26151.1   3438.5   7.4906 26376.1
 02 08 2016  00 44  -15.5097 26150.8   3439.0   7.4918 26376.0
 02 08 2016  00 45  -15.5092 26151.0   3438.9   7.4915 26376.1
 02 08 2016  00 46  -15.5098 26151.0   3439.3   7.4924 26376.2
 02 08 2016  00 47  -15.5099 26151.2   3439.7   7.4931 26376.4
 02 08 2016  00 48  -15.5099 26151.4   3439.2   7.4921 26376.6
 02 08 2016  00 49  -15.5101 26151.6   3440.0   7.4936 26376.8
 02 08 2016  00 50  -15.5095 26151.8   3439.6   7.4927 26377.1
 02 08 2016  00 51  -15.5100 26151.8   3440.0   7.4936 26377.0
 02 08 2016  00 52  -15.5101 26151.8   3439.6   7.4927 26377.0
 02 08 2016  00 53  -15.5104 26151.6   3440.1   7.4940 26376.9
 02 08 2016  00 54  -15.5103 26151.6   3439.8   7.4933 26376.8
 02 08 2016  00 55  -15.5103 26151.7   3439.7   7.4930 26377.0
 02 08 2016  00 56  -15.5100 26151.9   3439.9   7.4935 26377.2
 02 08 2016  00 57  -15.5104 26151.8   3439.5   7.4926 26377.0
 02 08 2016  00 58  -15.5097 26152.0   3439.2   7.4919 26377.1
 02 08 2016  00 59  -15.5096 26152.0   3439.5   7.4926 26377.2
 02 08 2016  01 00  -15.5097 26152.0   3439.5   7.4926 26377.2
 02 08 2016  01 01  -15.5096 26152.0   3439.9   7.4934 26377.3
 02 08 2016  01 02  -15.5101 26152.0   3439.9   7.4934 26377.3
 02 08 2016  01 03  -15.5095 26152.4   3440.9   7.4955 26377.8
 02 08 2016  01 04  -15.5093 26152.8   3440.3   7.4940 26378.1
 02 08 2016  01 05  -15.5091 26152.9   3440.4   7.4943 26378.2
 02 08 2016  01 06  -15.5093 26152.7   3440.1   7.4937 26378.0
 02 08 2016  01 07  -15.5096 26152.6   3439.5   7.4923 26377.8
 02 08 2016  01 08  -15.5092 26152.4   3439.5   7.4923 26377.6
 02 08 2016  01 09  -15.5094 26152.0   3439.7   7.4929 26377.3
 02 08 2016  01 10  -15.5092 26151.6   3439.0   7.4915 26376.8
 02 08 2016  01 11  -15.5094 26151.3   3438.8   7.4912 26376.5
 02 08 2016  01 12  -15.5091 26151.1   3439.5   7.4928 26376.3
 02 08 2016  01 13  -15.5091 26151.0   3439.6   7.4931 26376.3
 02 08 2016  01 14  -15.5085 26151.1   3439.2   7.4921 26376.3
 02 08 2016  01 15  -15.5083 26151.1   3440.0   7.4938 26376.4
 02 08 2016  01 16  -15.5081 26151.2   3439.4   7.4926 26376.4
 02 08 2016  01 17  -15.5087 26150.9   3439.6   7.4930 26376.2
 02 08 2016  01 18  -15.5091 26150.8   3439.2   7.4922 26375.9
 02 08 2016  01 19  -15.5091 26150.6   3439.8   7.4936 26375.8
 02 08 2016  01 20  -15.5092 26150.4   3439.4   7.4928 26375.7
 02 08 2016  01 21  -15.5087 26150.4   3439.9   7.4939 26375.7
 02 08 2016  01 22  -15.5088 26150.5   3439.1   7.4921 26375.7
 02 08 2016  01 23  -15.5088 26150.5   3439.0   7.4919 26375.7
 02 08 2016  01 24  -15.5089 26150.6   3439.4   7.4928 26375.8
 02 08 2016  01 25  -15.5086 26150.7   3439.7   7.4934 26376.0
 02 08 2016  01 26  -15.5085 26150.9   3439.3   7.4923 26376.1
 02 08 2016  01 27  -15.5086 26150.9   3439.3   7.4923 26376.1
 02 08 2016  01 28  -15.5081 26151.0   3440.2   7.4943 26376.4
 02 08 2016  01 29  -15.5079 26151.1   3439.9   7.4936 26376.4
 02 08 2016  01 30  -15.5080 26151.2   3439.9   7.4936 26376.4
 02 08 2016  01 31  -15.5085 26151.1   3439.7   7.4931 26376.3
 02 08 2016  01 32  -15.5083 26151.2   3439.5   7.4927 26376.4
 02 08 2016  01 33  -15.5082 26151.2   3439.5   7.4927 26376.4
 02 08 2016  01 34  -15.5084 26151.1   3440.0   7.4939 26376.4
 02 08 2016  01 35  -15.5081 26151.1   3439.6   7.4930 26376.4
 02 08 2016  01 36  -15.5081 26151.2   3439.4   7.4925 26376.4
 02 08 2016  01 37  -15.5081 26151.3   3439.5   7.4927 26376.5
 02 08 2016  01 38  -15.5080 26151.4   3439.0   7.4917 26376.5
 02 08 2016  01 39  -15.5082 26151.3   3439.0   7.4917 26376.5
 02 08 2016  01 40  -15.5081 26151.3   3439.7   7.4930 26376.5
 02 08 2016  01 41  -15.5079 26151.3   3439.6   7.4928 26376.5
 02 08 2016  01 42  -15.5083 26151.3   3439.1   7.4918 26376.4
 02 08 2016  01 43  -15.5083 26151.3   3439.7   7.4931 26376.5
 02 08 2016  01 44  -15.5079 26151.4   3438.8   7.4913 26376.5
 02 08 2016  01 45  -15.5084 26151.2   3439.4   7.4925 26376.4
 02 08 2016  01 46  -15.5083 26151.2   3439.5   7.4927 26376.4
 02 08 2016  01 47  -15.5082 26151.2   3439.3   7.4924 26376.4
 02 08 2016  01 48  -15.5084 26151.2   3439.1   7.4920 26376.3
 02 08 2016  01 49  -15.5084 26151.1   3439.4   7.4924 26376.3
 02 08 2016  01 50  -15.5083 26151.2   3439.3   7.4924 26376.4
 02 08 2016  01 51  -15.5084 26151.1   3439.3   7.4922 26376.3
 02 08 2016  01 52  -15.5083 26151.2   3439.3   7.4923 26376.4
 02 08 2016  01 53  -15.5084 26151.1   3439.6   7.4931 26376.3
 02 08 2016  01 54  -15.5082 26151.1   3439.5   7.4927 26376.3
 02 08 2016  01 55  -15.5086 26151.1   3439.3   7.4924 26376.3
 02 08 2016  01 56  -15.5085 26151.0   3439.4   7.4925 26376.2
 02 08 2016  01 57  -15.5087 26150.9   3439.2   7.4922 26376.1
 02 08 2016  01 58  -15.5086 26150.9   3439.2   7.4923 26376.1
 02 08 2016  01 59  -15.5084 26150.9   3439.3   7.4923 26376.1
 02 08 2016  02 00  -15.5086 26150.9   3439.5   7.4927 26376.1
 02 08 2016  02 01  -15.5086 26150.9   3439.3   7.4924 26376.1
 02 08 2016  02 02  -15.5083 26151.0   3439.4   7.4926 26376.2
 02 08 2016  02 03  -15.5089 26150.9   3439.6   7.4931 26376.2
 02 08 2016  02 04  -15.5089 26151.0   3438.9   7.4914 26376.2
 02 08 2016  02 05  -15.5090 26151.0   3439.3   7.4923 26376.2
 02 08 2016  02 06  -15.5082 26151.2   3439.2   7.4921 26376.4
 02 08 2016  02 07  -15.5086 26151.1   3439.2   7.4922 26376.3
 02 08 2016  02 08  -15.5086 26151.1   3439.2   7.4921 26376.2
 02 08 2016  02 09  -15.5088 26150.9   3438.9   7.4915 26376.1
 02 08 2016  02 10  -15.5089 26150.9   3439.0   7.4918 26376.1
 02 08 2016  02 11  -15.5084 26151.1   3439.5   7.4927 26376.3
 02 08 2016  02 12  -15.5084 26151.1   3439.3   7.4923 26376.3
 02 08 2016  02 13  -15.5086 26151.2   3439.2   7.4920 26376.3
 02 08 2016  02 14  -15.5086 26151.3   3438.7   7.4909 26376.4
 02 08 2016  02 15  -15.5081 26151.4   3439.3   7.4922 26376.6
 02 08 2016  02 16  -15.5079 26151.5   3439.9   7.4935 26376.8
 02 08 2016  02 17  -15.5080 26151.6   3439.3   7.4922 26376.8
 02 08 2016  02 18  -15.5085 26151.6   3439.3   7.4922 26376.8
 02 08 2016  02 19  -15.5084 26151.7   3438.7   7.4910 26376.8
 02 08 2016  02 20  -15.5083 26151.6   3439.1   7.4917 26376.8
 02 08 2016  02 21  -15.5078 26151.6   3439.1   7.4917 26376.8
 02 08 2016  02 22  -15.5079 26151.6   3439.5   7.4927 26376.8
 02 08 2016  02 23  -15.5082 26151.5   3439.3   7.4923 26376.7
 02 08 2016  02 24  -15.5079 26151.5   3439.3   7.4922 26376.7
 02 08 2016  02 25  -15.5079 26151.6   3439.3   7.4923 26376.8
 02 08 2016  02 26  -15.5079 26151.6   3439.8   7.4932 26376.8
 02 08 2016  02 27  -15.5077 26151.8   3439.5   7.4925 26377.0
 02 08 2016  02 28  -15.5071 26151.8   3439.8   7.4933 26377.0
 02 08 2016  02 29  -15.5077 26151.9   3439.1   7.4917 26377.0
 02 08 2016  02 30  -15.5080 26151.9   3439.3   7.4922 26377.1
 02 08 2016  02 31  -15.5073 26152.1   3439.7   7.4928 26377.4
 02 08 2016  02 32  -15.5077 26152.2   3439.6   7.4927 26377.4
 02 08 2016  02 33  -15.5076 26152.4   3438.7   7.4908 26377.5
 02 08 2016  02 34  -15.5076 26152.3   3439.2   7.4917 26377.5
 02 08 2016  02 35  -15.5076 26152.3   3439.4   7.4921 26377.5
 02 08 2016  02 36  -15.5076 26152.4   3438.6   7.4904 26377.5
 02 08 2016  02 37  -15.5072 26152.6   3438.9   7.4910 26377.7
 02 08 2016  02 38  -15.5068 26152.6   3439.4   7.4922 26377.8
 02 08 2016  02 39  -15.5074 26152.7   3438.7   7.4906 26377.8
 02 08 2016  02 40  -15.5076 26152.7   3439.2   7.4917 26377.9
 02 08 2016  02 41  -15.5069 26153.0   3439.2   7.4916 26378.2
 02 08 2016  02 42  -15.5071 26153.2   3439.4   7.4919 26378.4
 02 08 2016  02 43  -15.5070 26153.2   3439.2   7.4916 26378.4
 02 08 2016  02 44  -15.5071 26153.3   3438.7   7.4905 26378.4
 02 08 2016  02 45  -15.5072 26153.1   3438.9   7.4910 26378.2
 02 08 2016  02 46  -15.5073 26152.9   3438.9   7.4909 26378.0
 02 08 2016  02 47  -15.5073 26152.8   3438.8   7.4908 26377.9
 02 08 2016  02 48  -15.5075 26152.7   3438.7   7.4905 26377.8
 02 08 2016  02 49  -15.5075 26152.7   3438.8   7.4907 26377.8
 02 08 2016  02 50  -15.5074 26152.7   3438.9   7.4909 26377.8
 02 08 2016  02 51  -15.5074 26152.8   3439.1   7.4914 26377.9
 02 08 2016  02 52  -15.5074 26152.9   3438.3   7.4896 26377.9
 02 08 2016  02 53  -15.5073 26152.9   3438.8   7.4907 26378.0
 02 08 2016  02 54  -15.5072 26153.0   3438.9   7.4910 26378.1
 02 08 2016  02 55  -15.5073 26153.0   3438.8   7.4907 26378.1
 02 08 2016  02 56  -15.5071 26152.9   3439.0   7.4911 26378.0
 02 08 2016  02 57  -15.5071 26152.9   3438.6   7.4904 26378.0
 02 08 2016  02 58  -15.5074 26152.8   3438.5   7.4901 26377.9
 02 08 2016  02 59  -15.5076 26152.7   3438.7   7.4906 26377.8
 02 08 2016  03 00  -15.5071 26152.7   3439.3   7.4918 26377.9
 02 08 2016  03 01  -15.5076 26152.7   3438.7   7.4906 26377.8
 02 08 2016  03 02  -15.5073 26152.8   3439.4   7.4922 26378.0
 02 08 2016  03 03  -15.5074 26152.9   3438.7   7.4905 26378.0
 02 08 2016  03 04  -15.5072 26153.0   3439.0   7.4912 26378.1
 02 08 2016  03 05  -15.5074 26153.1   3438.2   7.4895 26378.1
 02 08 2016  03 06  -15.5073 26153.1   3438.5   7.4900 26378.2
 02 08 2016  03 07  -15.5069 26153.2   3438.9   7.4908 26378.3
 02 08 2016  03 08  -15.5072 26153.1   3438.9   7.4908 26378.2
 02 08 2016  03 09  -15.5067 26153.2   3438.9   7.4909 26378.3
 02 08 2016  03 10  -15.5070 26153.1   3438.7   7.4904 26378.2
 02 08 2016  03 11  -15.5071 26153.0   3438.8   7.4907 26378.1
 02 08 2016  03 12  -15.5078 26152.8   3438.4   7.4898 26377.8
 02 08 2016  03 13  -15.5075 26152.6   3438.7   7.4907 26377.7
 02 08 2016  03 14  -15.5078 26152.5   3439.0   7.4913 26377.7
 02 08 2016  03 15  -15.5079 26152.4   3438.3   7.4898 26377.5
 02 08 2016  03 16  -15.5076 26152.4   3437.9   7.4889 26377.4
 02 08 2016  03 17  -15.5073 26152.4   3438.9   7.4911 26377.5
 02 08 2016  03 18  -15.5076 26152.2   3438.7   7.4908 26377.4
 02 08 2016  03 19  -15.5076 26152.2   3438.2   7.4897 26377.3
 02 08 2016  03 20  -15.5077 26152.2   3438.5   7.4902 26377.3
 02 08 2016  03 21  -15.5076 26152.2   3438.6   7.4905 26377.3
 02 08 2016  03 22  -15.5079 26152.1   3438.5   7.4903 26377.2
 02 08 2016  03 23  -15.5075 26152.3   3438.3   7.4899 26377.3
 02 08 2016  03 24  -15.5076 26152.2   3439.1   7.4915 26377.3
 02 08 2016  03 25  -15.5078 26152.1   3438.8   7.4909 26377.2
 02 08 2016  03 26  -15.5081 26152.2   3438.4   7.4901 26377.3
 02 08 2016  03 27  -15.5075 26152.5   3438.9   7.4911 26377.6
 02 08 2016  03 28  -15.5074 26152.7   3439.1   7.4915 26377.9
 02 08 2016  03 29  -15.5076 26152.9   3439.2   7.4916 26378.0
 02 08 2016  03 30  -15.5072 26153.1   3439.1   7.4914 26378.2
 02 08 2016  03 31  -15.5073 26153.2   3439.3   7.4917 26378.3
 02 08 2016  03 32  -15.5074 26153.2   3438.4   7.4898 26378.3
 02 08 2016  03 33  -15.5073 26153.2   3438.7   7.4905 26378.3
 02 08 2016  03 34  -15.5075 26153.0   3438.9   7.4910 26378.2
 02 08 2016  03 35  -15.5075 26153.0   3439.5   7.4922 26378.2
 02 08 2016  03 36  -15.5075 26153.0   3439.4   7.4919 26378.2
 02 08 2016  03 37  -15.5076 26153.0   3439.2   7.4916 26378.2
 02 08 2016  03 38  -15.5075 26153.0   3439.6   7.4924 26378.2
 02 08 2016  03 39  -15.5073 26153.0   3438.9   7.4909 26378.1
 02 08 2016  03 40  -15.5075 26153.0   3438.3   7.4896 26378.1
 02 08 2016  03 41  -15.5075 26153.0   3438.9   7.4910 26378.1
 02 08 2016  03 42  -15.5070 26153.2   3439.5   7.4921 26378.4
 02 08 2016  03 43  -15.5072 26153.3   3438.5   7.4901 26378.4
 02 08 2016  03 44  -15.5069 26153.5   3439.4   7.4919 26378.7
 02 08 2016  03 45  -15.5069 26153.6   3438.9   7.4908 26378.7
 02 08 2016  03 46  -15.5070 26153.6   3439.4   7.4918 26378.8
 02 08 2016  03 47  -15.5067 26153.7   3439.1   7.4911 26378.8
 02 08 2016  03 48  -15.5074 26153.5   3438.5   7.4899 26378.5
 02 08 2016  03 49  -15.5073 26153.2   3438.4   7.4899 26378.3
 02 08 2016  03 50  -15.5070 26153.0   3438.7   7.4905 26378.1
 02 08 2016  03 51  -15.5071 26152.7   3439.1   7.4914 26377.8
 02 08 2016  03 52  -15.5073 26152.5   3438.1   7.4894 26377.6
 02 08 2016  03 53  -15.5076 26152.3   3439.0   7.4913 26377.4
 02 08 2016  03 54  -15.5073 26152.2   3439.0   7.4914 26377.3
 02 08 2016  03 55  -15.5072 26152.1   3438.7   7.4909 26377.2
 02 08 2016  03 56  -15.5074 26152.0   3438.6   7.4905 26377.1
 02 08 2016  03 57  -15.5075 26151.9   3439.4   7.4923 26377.1
 02 08 2016  03 58  -15.5076 26151.9   3438.7   7.4908 26377.1
 02 08 2016  03 59  -15.5072 26152.1   3438.6   7.4905 26377.2
 02 08 2016  04 00  -15.5075 26152.1   3439.0   7.4915 26377.3
 02 08 2016  04 01  -15.5073 26152.3   3438.6   7.4904 26377.4
 02 08 2016  04 02  -15.5072 26152.3   3439.5   7.4924 26377.5
 02 08 2016  04 03  -15.5066 26152.5   3439.5   7.4924 26377.8
 02 08 2016  04 04  -15.5072 26152.5   3439.1   7.4915 26377.6
 02 08 2016  04 05  -15.5070 26152.6   3439.0   7.4913 26377.8
 02 08 2016  04 06  -15.5069 26152.7   3439.1   7.4915 26377.8
 02 08 2016  04 07  -15.5070 26152.7   3439.2   7.4916 26377.9
 02 08 2016  04 08  -15.5071 26152.7   3439.1   7.4915 26377.9
 02 08 2016  04 09  -15.5070 26152.8   3439.0   7.4913 26377.9
 02 08 2016  04 10  -15.5070 26152.9   3439.3   7.4917 26378.0
 02 08 2016  04 11  -15.5070 26152.9   3439.1   7.4915 26378.0
 02 08 2016  04 12  -15.5070 26152.9   3439.2   7.4915 26378.1
 02 08 2016  04 13  -15.5070 26152.9   3439.2   7.4916 26378.0
 02 08 2016  04 14  -15.5070 26152.8   3439.2   7.4916 26378.0
 02 08 2016  04 15  -15.5074 26152.7   3438.7   7.4905 26377.8
 02 08 2016  04 16  -15.5069 26152.9   3439.0   7.4911 26378.0
 02 08 2016  04 17  -15.5066 26153.0   3439.5   7.4922 26378.2
 02 08 2016  04 18  -15.5072 26153.0   3439.0   7.4911 26378.1
 02 08 2016  04 19  -15.5067 26153.1   3439.4   7.4920 26378.3
 02 08 2016  04 20  -15.5069 26153.2   3439.1   7.4912 26378.4
 02 08 2016  04 21  -15.5068 26153.3   3439.4   7.4919 26378.5
 02 08 2016  04 22  -15.5073 26153.3   3439.2   7.4914 26378.5
 02 08 2016  04 23  -15.5073 26153.4   3439.3   7.4916 26378.6
 02 08 2016  04 24  -15.5071 26153.6   3438.6   7.4901 26378.7
 02 08 2016  04 25  -15.5067 26153.7   3438.6   7.4901 26378.8
 02 08 2016  04 26  -15.5065 26153.9   3439.0   7.4908 26379.0
 02 08 2016  04 27  -15.5064 26154.0   3438.9   7.4906 26379.1
 02 08 2016  04 28  -15.5065 26154.1   3439.3   7.4914 26379.2
 02 08 2016  04 29  -15.5071 26154.1   3439.3   7.4914 26379.2
 02 08 2016  04 30  -15.5069 26154.1   3438.6   7.4901 26379.2
 02 08 2016  04 31  -15.5067 26154.0   3439.2   7.4913 26379.2
 02 08 2016  04 32  -15.5070 26154.0   3439.3   7.4916 26379.2
 02 08 2016  04 33  -15.5069 26154.1   3438.8   7.4905 26379.2
 02 08 2016  04 34  -15.5064 26154.2   3439.1   7.4911 26379.4
 02 08 2016  04 35  -15.5070 26154.2   3438.8   7.4904 26379.3
 02 08 2016  04 36  -15.5064 26154.3   3439.1   7.4910 26379.5
 02 08 2016  04 37  -15.5064 26154.4   3438.9   7.4906 26379.5
 02 08 2016  04 38  -15.5063 26154.6   3439.0   7.4908 26379.7
 02 08 2016  04 39  -15.5065 26154.6   3439.4   7.4915 26379.7
 02 08 2016  04 40  -15.5067 26154.6   3439.3   7.4913 26379.7
 02 08 2016  04 41  -15.5069 26154.6   3439.5   7.4918 26379.8
 02 08 2016  04 42  -15.5064 26154.9   3439.0   7.4907 26380.0
 02 08 2016  04 43  -15.5064 26155.0   3439.5   7.4916 26380.2
 02 08 2016  04 44  -15.5063 26155.3   3439.0   7.4906 26380.4
 02 08 2016  04 45  -15.5060 26155.8   3439.5   7.4914 26381.0
 02 08 2016  04 46  -15.5056 26156.5   3439.9   7.4920 26381.8
 02 08 2016  04 47  -15.5057 26157.2   3440.3   7.4928 26382.5
 02 08 2016  04 48  -15.5060 26157.8   3439.8   7.4915 26383.0
 02 08 2016  04 49  -15.5053 26158.7   3440.1   7.4919 26383.9
 02 08 2016  04 50  -15.5052 26159.4   3440.7   7.4930 26384.7
 02 08 2016  04 51  -15.5049 26160.3   3440.7   7.4928 26385.6
 02 08 2016  04 52  -15.5044 26161.2   3440.9   7.4929 26386.5
 02 08 2016  04 53  -15.5038 26162.1   3440.9   7.4927 26387.4
 02 08 2016  04 54  -15.5035 26162.9   3441.0   7.4926 26388.2
 02 08 2016  04 55  -15.5031 26163.7   3440.9   7.4923 26389.0
 02 08 2016  04 56  -15.5025 26164.7   3441.3   7.4928 26390.1
 02 08 2016  04 57  -15.5019 26165.8   3441.6   7.4931 26391.2
 02 08 2016  04 58  -15.5012 26166.9   3441.9   7.4934 26392.3
 02 08 2016  04 59  -15.5007 26168.0   3442.1   7.4936 26393.4
 02 08 2016  05 00  -15.5000 26169.1   3441.9   7.4928 26394.4
 02 08 2016  05 01  -15.4995 26169.8   3441.9   7.4927 26395.1
 02 08 2016  05 02  -15.4991 26170.2   3441.5   7.4917 26395.5
 02 08 2016  05 03  -15.4990 26170.4   3441.1   7.4907 26395.7
 02 08 2016  05 04  -15.4990 26170.3   3441.5   7.4916 26395.6
 02 08 2016  05 05  -15.4993 26170.0   3440.1   7.4888 26395.1
 02 08 2016  05 06  -15.4993 26169.5   3439.3   7.4870 26394.6
 02 08 2016  05 07  -15.4995 26169.1   3439.4   7.4874 26394.2
 02 08 2016  05 08  -15.5000 26168.5   3439.4   7.4877 26393.6
 02 08 2016  05 09  -15.5003 26168.1   3438.4   7.4856 26393.0
 02 08 2016  05 10  -15.5003 26167.7   3438.7   7.4863 26392.7
 02 08 2016  05 11  -15.4998 26167.5   3438.9   7.4869 26392.5
 02 08 2016  05 12  -15.5007 26167.1   3438.1   7.4853 26392.0
 02 08 2016  05 13  -15.5001 26167.0   3438.3   7.4858 26391.9
 02 08 2016  05 14  -15.5003 26166.9   3438.0   7.4852 26391.8
 02 08 2016  05 15  -15.5003 26166.9   3437.7   7.4844 26391.7
 02 08 2016  05 16  -15.5000 26166.7   3438.6   7.4864 26391.7
 02 08 2016  05 17  -15.5003 26166.6   3438.7   7.4866 26391.5
 02 08 2016  05 18  -15.5001 26166.5   3438.5   7.4863 26391.4
 02 08 2016  05 19  -15.5003 26166.3   3438.4   7.4861 26391.3
 02 08 2016  05 20  -15.5003 26166.3   3438.4   7.4861 26391.2
 02 08 2016  05 21  -15.5006 26166.0   3438.4   7.4861 26390.9
 02 08 2016  05 22  -15.5008 26165.8   3437.6   7.4845 26390.7
 02 08 2016  05 23  -15.5009 26165.6   3438.0   7.4855 26390.5
 02 08 2016  05 24  -15.5006 26165.7   3437.6   7.4845 26390.5
 02 08 2016  05 25  -15.5005 26165.8   3438.5   7.4865 26390.7
 02 08 2016  05 26  -15.5006 26165.9   3438.5   7.4864 26390.8
 02 08 2016  05 27  -15.5001 26166.0   3438.7   7.4868 26391.0
 02 08 2016  05 28  -15.5002 26166.0   3438.0   7.4853 26390.8
 02 08 2016  05 29  -15.5005 26165.9   3438.2   7.4859 26390.8
 02 08 2016  05 30  -15.5002 26165.8   3438.4   7.4863 26390.8
 02 08 2016  05 31  -15.5003 26165.6   3438.4   7.4863 26390.6
 02 08 2016  05 32  -15.5003 26165.4   3437.5   7.4844 26390.3
 02 08 2016  05 33  -15.5001 26165.5   3437.9   7.4852 26390.4
 02 08 2016  05 34  -15.4998 26165.5   3438.3   7.4860 26390.4
 02 08 2016  05 35  -15.4994 26165.7   3438.9   7.4875 26390.7
 02 08 2016  05 36  -15.4997 26165.9   3438.8   7.4870 26390.9
 02 08 2016  05 37  -15.4992 26166.3   3438.6   7.4866 26391.3
 02 08 2016  05 38  -15.4988 26166.5   3438.9   7.4872 26391.5
 02 08 2016  05 39  -15.4985 26166.8   3438.6   7.4863 26391.8
 02 08 2016  05 40  -15.4983 26166.9   3439.0   7.4872 26391.9
 02 08 2016  05 41  -15.4983 26166.9   3438.6   7.4863 26391.9
 02 08 2016  05 42  -15.4986 26166.7   3438.5   7.4861 26391.7
 02 08 2016  05 43  -15.4987 26166.7   3438.1   7.4853 26391.6
 02 08 2016  05 44  -15.4982 26166.7   3438.6   7.4864 26391.6
 02 08 2016  05 45  -15.4982 26166.6   3438.5   7.4862 26391.6
 02 08 2016  05 46  -15.4978 26166.7   3438.4   7.4860 26391.6
 02 08 2016  05 47  -15.4977 26166.6   3438.1   7.4853 26391.5
 02 08 2016  05 48  -15.4975 26166.6   3438.5   7.4863 26391.5
 02 08 2016  05 49  -15.4976 26166.4   3438.3   7.4859 26391.3
 02 08 2016  05 50  -15.4976 26166.1   3438.1   7.4854 26391.0
 02 08 2016  05 51  -15.4968 26166.3   3438.1   7.4855 26391.2
 02 08 2016  05 52  -15.4970 26166.2   3438.4   7.4861 26391.2
 02 08 2016  05 53  -15.4967 26166.1   3438.7   7.4867 26391.1
 02 08 2016  05 54  -15.4969 26166.1   3438.1   7.4855 26391.0
 02 08 2016  05 55  -15.4964 26166.2   3438.5   7.4864 26391.2
 02 08 2016  05 56  -15.4969 26165.5   3438.1   7.4857 26390.4
 02 08 2016  05 57  -15.4969 26165.7   3438.4   7.4863 26390.6
 02 08 2016  05 58  -15.4973 26165.5   3437.6   7.4846 26390.3
 02 08 2016  05 59  -15.4976 26165.0   3437.4   7.4843 26389.9
 02 08 2016  06 00  -15.4979 26164.8   3437.4   7.4844 26389.7
 02 08 2016  06 01  -15.4974 26164.6   3438.1   7.4859 26389.5
 02 08 2016  06 02  -15.4975 26164.5   3438.0   7.4857 26389.4
 02 08 2016  06 03  -15.4978 26164.3   3438.5   7.4868 26389.2
 02 08 2016  06 04  -15.4981 26164.0   3437.8   7.4855 26388.8
 02 08 2016  06 05  -15.4980 26163.9   3438.2   7.4863 26388.8
 02 08 2016  06 06  -15.4980 26164.0   3437.8   7.4854 26388.9
 02 08 2016  06 07  -15.4972 26164.2   3438.7   7.4873 26389.2
 02 08 2016  06 08  -15.4979 26163.6   3437.8   7.4856 26388.5
 02 08 2016  06 09  -15.4976 26163.1   3437.6   7.4853 26388.0
 02 08 2016  06 10  -15.4980 26162.5   3437.8   7.4860 26387.4
 02 08 2016  06 11  -15.4982 26161.7   3437.5   7.4855 26386.6
 02 08 2016  06 12  -15.4986 26161.1   3437.6   7.4859 26386.0
 02 08 2016  06 13  -15.4989 26160.6   3436.6   7.4839 26385.3
 02 08 2016  06 14  -15.4988 26160.1   3437.0   7.4848 26384.9
 02 08 2016  06 15  -15.4990 26159.6   3437.7   7.4865 26384.5
 02 08 2016  06 16  -15.4989 26159.2   3438.0   7.4872 26384.1
 02 08 2016  06 17  -15.4989 26158.9   3437.0   7.4852 26383.7
 02 08 2016  06 18  -15.4989 26158.6   3437.2   7.4858 26383.4
 02 08 2016  06 19  -15.4983 26158.6   3437.5   7.4863 26383.5
 02 08 2016  06 20  -15.4981 26158.3   3438.4   7.4884 26383.4
 02 08 2016  06 21  -15.4983 26158.2   3437.8   7.4871 26383.2
 02 08 2016  06 22  -15.4983 26158.3   3437.8   7.4870 26383.2
 02 08 2016  06 23  -15.4976 26158.4   3438.5   7.4885 26383.5
 02 08 2016  06 24  -15.4977 26158.2   3438.9   7.4894 26383.3
 02 08 2016  06 25  -15.4976 26158.0   3438.7   7.4891 26383.1
 02 08 2016  06 26  -15.4985 26157.4   3438.1   7.4880 26382.4
 02 08 2016  06 27  -15.4980 26157.5   3438.7   7.4893 26382.6
 02 08 2016  06 28  -15.4985 26157.6   3438.9   7.4896 26382.7
 02 08 2016  06 29  -15.4984 26157.6   3438.6   7.4891 26382.6
 02 08 2016  06 30  -15.4989 26157.3   3438.9   7.4898 26382.4
 02 08 2016  06 31  -15.4993 26157.0   3438.3   7.4885 26382.1
 02 08 2016  06 32  -15.4992 26156.9   3438.9   7.4897 26382.0
 02 08 2016  06 33  -15.4994 26156.4   3438.4   7.4889 26381.4
 02 08 2016  06 34  -15.4996 26155.9   3438.2   7.4886 26381.0
 02 08 2016  06 35  -15.4994 26155.8   3438.6   7.4895 26380.9
 02 08 2016  06 36  -15.4998 26155.3   3438.5   7.4893 26380.4
 02 08 2016  06 37  -15.5000 26155.0   3438.4   7.4892 26380.0
 02 08 2016  06 38  -15.5002 26155.1   3438.9   7.4903 26380.2
 02 08 2016  06 39  -15.5001 26155.2   3438.2   7.4889 26380.2
 02 08 2016  06 40  -15.5005 26154.7   3438.8   7.4902 26379.8
 02 08 2016  06 41  -15.5000 26155.3   3438.7   7.4898 26380.3
 02 08 2016  06 42  -15.5001 26155.5   3438.4   7.4891 26380.5
 02 08 2016  06 43  -15.4998 26155.4   3439.0   7.4905 26380.6
 02 08 2016  06 44  -15.5001 26155.2   3438.9   7.4902 26380.3
 02 08 2016  06 45  -15.5002 26155.7   3439.0   7.4905 26380.8
 02 08 2016  06 46  -15.5003 26155.7   3438.9   7.4903 26380.8
 02 08 2016  06 47  -15.5007 26155.4   3438.5   7.4893 26380.5
 02 08 2016  06 48  -15.5003 26155.5   3438.9   7.4903 26380.6
 02 08 2016  06 49  -15.5008 26155.4   3438.7   7.4899 26380.5
 02 08 2016  06 50  -15.5007 26155.7   3438.8   7.4899 26380.8
 02 08 2016  06 51  -15.5002 26156.0   3439.1   7.4906 26381.1
 02 08 2016  06 52  -15.5003 26156.4   3439.1   7.4904 26381.5
 02 08 2016  06 53  -15.5009 26155.8   3438.6   7.4895 26380.8
 02 08 2016  06 54  -15.5014 26156.0   3439.1   7.4905 26381.1
 02 08 2016  06 55  -15.5014 26156.3   3438.9   7.4901 26381.4
 02 08 2016  06 56  -15.5014 26156.7   3439.2   7.4906 26381.9
 02 08 2016  06 57  -15.5016 26157.0   3439.8   7.4918 26382.2
 02 08 2016  06 58  -15.5015 26157.0   3439.2   7.4905 26382.1
 02 08 2016  06 59  -15.5008 26157.9   3440.3   7.4927 26383.2
 02 08 2016  07 00  -15.5011 26157.6   3439.6   7.4911 26382.8
 02 08 2016  07 01  -15.5012 26157.9   3439.3   7.4903 26383.1
 02 08 2016  07 02  -15.5010 26157.8   3439.3   7.4905 26382.9
 02 08 2016  07 03  -15.5004 26158.5   3439.8   7.4913 26383.7
 02 08 2016  07 04  -15.5002 26158.9   3440.0   7.4917 26384.1
 02 08 2016  07 05  -15.5002 26159.6   3439.8   7.4910 26384.8
 02 08 2016  07 06  -15.4999 26160.5   3440.2   7.4917 26385.7
 02 08 2016  07 07  -15.4992 26162.2   3441.1   7.4930 26387.5
 02 08 2016  07 08  -15.4992 26162.5   3440.5   7.4918 26387.8
 02 08 2016  07 09  -15.4986 26163.2   3440.6   7.4918 26388.4
 02 08 2016  07 10  -15.4982 26163.7   3441.3   7.4930 26389.0
 02 08 2016  07 11  -15.4980 26163.8   3440.6   7.4915 26389.0
 02 08 2016  07 12  -15.4980 26163.1   3440.6   7.4917 26388.4
 02 08 2016  07 13  -15.4977 26163.6   3440.2   7.4907 26388.8
 02 08 2016  07 14  -15.4969 26164.0   3440.3   7.4909 26389.3
 02 08 2016  07 15  -15.4969 26164.2   3440.1   7.4903 26389.4
 02 08 2016  07 16  -15.4964 26164.5   3440.4   7.4908 26389.8
 02 08 2016  07 17  -15.4964 26164.9   3440.4   7.4908 26390.1
 02 08 2016  07 18  -15.4962 26165.6   3440.4   7.4906 26390.8
 02 08 2016  07 19  -15.4962 26165.6   3440.6   7.4910 26390.8
 02 08 2016  07 20  -15.4955 26166.3   3440.8   7.4913 26391.5
 02 08 2016  07 21  -15.4954 26166.1   3439.9   7.4894 26391.2
 02 08 2016  07 22  -15.4953 26166.0   3440.2   7.4901 26391.1
 02 08 2016  07 23  -15.4953 26166.1   3439.3   7.4880 26391.1
 02 08 2016  07 24  -15.4949 26165.8   3439.6   7.4889 26390.9
 02 08 2016  07 25  -15.4952 26165.6   3439.5   7.4886 26390.7
 02 08 2016  07 26  -15.4954 26165.3   3439.2   7.4882 26390.4
 02 08 2016  07 27  -15.4952 26165.2   3439.1   7.4880 26390.3
 02 08 2016  07 28  -15.4951 26165.2   3439.4   7.4885 26390.3
 02 08 2016  07 29  -15.4950 26165.5   3439.8   7.4894 26390.7
 02 08 2016  07 30  -15.4951 26165.6   3439.2   7.4881 26390.7
 02 08 2016  07 31  -15.4953 26165.7   3438.9   7.4874 26390.7
 02 08 2016  07 32  -15.4953 26165.5   3439.5   7.4886 26390.6
 02 08 2016  07 33  -15.4952 26165.7   3439.7   7.4890 26390.8
 02 08 2016  07 34  -15.4951 26165.8   3438.8   7.4871 26390.8
 02 08 2016  07 35  -15.4946 26165.7   3439.5   7.4886 26390.8
 02 08 2016  07 36  -15.4945 26166.0   3439.9   7.4895 26391.1
 02 08 2016  07 37  -15.4945 26166.0   3439.5   7.4884 26391.1
 02 08 2016  07 38  -15.4948 26166.0   3439.4   7.4883 26391.1
 02 08 2016  07 39  -15.4945 26166.3   3439.8   7.4891 26391.4
 02 08 2016  07 40  -15.4947 26166.5   3439.4   7.4882 26391.6
 02 08 2016  07 41  -15.4947 26166.4   3439.7   7.4888 26391.5
 02 08 2016  07 42  -15.4947 26166.5   3439.6   7.4886 26391.6
 02 08 2016  07 43  -15.4946 26166.7   3439.8   7.4889 26391.8
 02 08 2016  07 44  -15.4948 26166.5   3439.5   7.4883 26391.6
 02 08 2016  07 45  -15.4950 26166.5   3438.8   7.4868 26391.5
 02 08 2016  07 46  -15.4950 26166.6   3438.8   7.4869 26391.6
 02 08 2016  07 47  -15.4947 26166.2   3438.4   7.4861 26391.1
 02 08 2016  07 48  -15.4950 26165.8   3438.6   7.4866 26390.7
 02 08 2016  07 49  -15.4952 26165.5   3438.9   7.4875 26390.5
 02 08 2016  07 50  -15.4953 26165.4   3438.3   7.4861 26390.4
 02 08 2016  07 51  -15.4953 26165.1   3438.9   7.4876 26390.1
 02 08 2016  07 52  -15.4955 26165.0   3438.4   7.4865 26390.0
 02 08 2016  07 53  -15.4957 26165.0   3438.6   7.4869 26390.0
 02 08 2016  07 54  -15.4957 26165.2   3438.8   7.4872 26390.2
 02 08 2016  07 55  -15.4957 26165.3   3439.2   7.4881 26390.4
 02 08 2016  07 56  -15.4959 26165.6   3439.0   7.4875 26390.7
 02 08 2016  07 57  -15.4957 26166.1   3439.2   7.4878 26391.1
 02 08 2016  07 58  -15.4957 26166.5   3439.4   7.4881 26391.5
 02 08 2016  07 59  -15.4956 26166.9   3440.0   7.4893 26392.0
 02 08 2016  08 00  -15.4954 26167.3   3440.0   7.4892 26392.5
 02 08 2016  08 01  -15.4952 26167.8   3439.8   7.4887 26392.9
 02 08 2016  08 02  -15.4949 26168.1   3440.0   7.4891 26393.3
 02 08 2016  08 03  -15.4947 26168.6   3440.1   7.4891 26393.8
 02 08 2016  08 04  -15.4945 26169.0   3440.2   7.4891 26394.1
 02 08 2016  08 05  -15.4942 26169.3   3440.1   7.4889 26394.4
 02 08 2016  08 06  -15.4940 26169.6   3440.2   7.4891 26394.7
 02 08 2016  08 07  -15.4939 26169.7   3439.9   7.4883 26394.8
 02 08 2016  08 08  -15.4935 26169.9   3440.3   7.4891 26395.1
 02 08 2016  08 09  -15.4933 26170.2   3439.7   7.4878 26395.2
 02 08 2016  08 10  -15.4932 26170.0   3439.6   7.4877 26395.1
 02 08 2016  08 11  -15.4936 26169.1   3439.2   7.4869 26394.2
 02 08 2016  08 12  -15.4937 26168.0   3438.4   7.4857 26392.9
 02 08 2016  08 13  -15.4937 26167.0   3437.9   7.4848 26391.9
 02 08 2016  08 14  -15.4937 26166.3   3437.6   7.4843 26391.1
 02 08 2016  08 15  -15.4934 26165.8   3438.2   7.4857 26390.7
 02 08 2016  08 16  -15.4934 26165.3   3437.9   7.4853 26390.2
 02 08 2016  08 17  -15.4936 26165.2   3438.0   7.4855 26390.1
 02 08 2016  08 18  -15.4935 26165.3   3438.0   7.4854 26390.2
 02 08 2016  08 19  -15.4938 26165.2   3438.1   7.4858 26390.2
 02 08 2016  08 20  -15.4936 26165.5   3438.6   7.4868 26390.5
 02 08 2016  08 21  -15.4938 26165.6   3438.2   7.4860 26390.6
 02 08 2016  08 22  -15.4935 26165.8   3439.0   7.4876 26390.8
 02 08 2016  08 23  -15.4935 26165.9   3439.1   7.4876 26390.9
 02 08 2016  08 24  -15.4937 26165.9   3438.8   7.4870 26390.9
 02 08 2016  08 25  -15.4933 26165.9   3439.2   7.4880 26391.0
 02 08 2016  08 26  -15.4930 26166.0   3438.8   7.4871 26391.0
 02 08 2016  08 27  -15.4929 26165.9   3439.3   7.4882 26391.0
 02 08 2016  08 28  -15.4932 26165.9   3438.6   7.4866 26390.9
 02 08 2016  08 29  -15.4934 26165.8   3439.1   7.4877 26390.9
 02 08 2016  08 30  -15.4932 26166.0   3438.7   7.4868 26391.0
 02 08 2016  08 31  -15.4931 26166.2   3439.1   7.4877 26391.2
 02 08 2016  08 32  -15.4930 26166.3   3439.3   7.4879 26391.4
 02 08 2016  08 33  -15.4930 26166.6   3439.8   7.4891 26391.7
 02 08 2016  08 34  -15.4929 26167.1   3439.4   7.4880 26392.2
 02 08 2016  08 35  -15.4926 26167.6   3439.9   7.4890 26392.8
 02 08 2016  08 36  -15.4922 26167.9   3439.5   7.4880 26393.0
 02 08 2016  08 37  -15.4920 26168.1   3439.4   7.4878 26393.2
 02 08 2016  08 38  -15.4916 26168.2   3439.6   7.4882 26393.3
 02 08 2016  08 39  -15.4911 26168.4   3439.7   7.4883 26393.5
 02 08 2016  08 40  -15.4908 26168.4   3439.5   7.4878 26393.5
 02 08 2016  08 41  -15.4909 26168.5   3439.6   7.4880 26393.6
 02 08 2016  08 42  -15.4905 26168.7   3439.8   7.4883 26393.8
 02 08 2016  08 43  -15.4908 26168.7   3439.7   7.4881 26393.8
 02 08 2016  08 44  -15.4911 26168.7   3439.5   7.4878 26393.7
 02 08 2016  08 45  -15.4908 26168.8   3439.9   7.4887 26393.9
 02 08 2016  08 46  -15.4908 26168.9   3439.1   7.4869 26393.9
 02 08 2016  08 47  -15.4907 26169.1   3439.6   7.4880 26394.2
 02 08 2016  08 48  -15.4904 26169.2   3439.1   7.4869 26394.2
 02 08 2016  08 49  -15.4901 26169.3   3439.9   7.4884 26394.4
 02 08 2016  08 50  -15.4902 26169.5   3439.7   7.4880 26394.5
 02 08 2016  08 51  -15.4898 26169.7   3439.6   7.4877 26394.8
 02 08 2016  08 52  -15.4893 26170.0   3439.7   7.4878 26395.1
 02 08 2016  08 53  -15.4890 26170.2   3439.7   7.4879 26395.3
 02 08 2016  08 54  -15.4888 26170.3   3439.6   7.4875 26395.4
 02 08 2016  08 55  -15.4883 26170.6   3439.8   7.4879 26395.6
 02 08 2016  08 56  -15.4881 26171.1   3440.0   7.4883 26396.2
 02 08 2016  08 57  -15.4875 26171.2   3440.2   7.4886 26396.4
 02 08 2016  08 58  -15.4874 26171.5   3439.8   7.4876 26396.5
 02 08 2016  08 59  -15.4865 26171.8   3439.6   7.4871 26396.9
 02 08 2016  09 00  -15.4859 26171.7   3439.5   7.4869 26396.7
 02 08 2016  09 01  -15.4854 26171.9   3439.7   7.4873 26396.9
 02 08 2016  09 02  -15.4852 26171.8   3439.7   7.4873 26396.9
 02 08 2016  09 03  -15.4851 26172.3   3439.8   7.4874 26397.3
 02 08 2016  09 04  -15.4850 26172.8   3439.9   7.4875 26397.9
 02 08 2016  09 05  -15.4849 26173.5   3440.2   7.4879 26398.6
 02 08 2016  09 06  -15.4847 26173.8   3440.1   7.4876 26398.9
 02 08 2016  09 07  -15.4842 26174.1   3440.1   7.4874 26399.2
 02 08 2016  09 08  -15.4838 26174.5   3440.1   7.4874 26399.6
 02 08 2016  09 09  -15.4836 26174.6   3439.6   7.4864 26399.6
 02 08 2016  09 10  -15.4831 26174.5   3440.0   7.4871 26399.5
 02 08 2016  09 11  -15.4830 26174.6   3439.7   7.4867 26399.6
 02 08 2016  09 12  -15.4831 26174.5   3439.7   7.4865 26399.5
 02 08 2016  09 13  -15.4834 26174.2   3439.2   7.4856 26399.2
 02 08 2016  09 14  -15.4837 26174.1   3438.9   7.4850 26399.0
 02 08 2016  09 15  -15.4842 26174.1   3439.0   7.4851 26399.0
 02 08 2016  09 16  -15.4846 26173.7   3438.9   7.4851 26398.6
 02 08 2016  09 17  -15.4850 26172.9   3438.2   7.4839 26397.8
 02 08 2016  09 18  -15.4852 26172.2   3438.1   7.4837 26397.0
 02 08 2016  09 19  -15.4852 26171.6   3437.9   7.4834 26396.5
 02 08 2016  09 20  -15.4851 26172.2   3438.8   7.4853 26397.2
 02 08 2016  09 21  -15.4851 26172.3   3438.4   7.4844 26397.1
 02 08 2016  09 22  -15.4854 26172.2   3438.6   7.4848 26397.1
 02 08 2016  09 23  -15.4844 26172.2   3438.3   7.4843 26397.1
 02 08 2016  09 24  -15.4838 26172.0   3438.7   7.4852 26396.9
 02 08 2016  09 25  -15.4829 26171.5   3439.0   7.4860 26396.5
 02 08 2016  09 26  -15.4828 26171.1   3438.2   7.4844 26396.0
 02 08 2016  09 27  -15.4828 26170.7   3438.1   7.4843 26395.6
 02 08 2016  09 28  -15.4830 26170.2   3438.0   7.4841 26395.1
 02 08 2016  09 29  -15.4832 26169.7   3437.5   7.4832 26394.5
 02 08 2016  09 30  -15.4835 26169.5   3437.5   7.4833 26394.3
 02 08 2016  09 31  -15.4840 26169.3   3437.6   7.4836 26394.2
 02 08 2016  09 32  -15.4841 26169.5   3438.1   7.4846 26394.4
 02 08 2016  09 33  -15.4842 26169.5   3438.1   7.4845 26394.4
 02 08 2016  09 34  -15.4835 26170.1   3438.5   7.4853 26395.0
 02 08 2016  09 35  -15.4833 26170.7   3438.8   7.4857 26395.6
 02 08 2016  09 36  -15.4828 26172.9   3440.0   7.4877 26398.0
 02 08 2016  09 37  -15.4817 26174.1   3440.6   7.4887 26399.2
 02 08 2016  09 38  -15.4797 26176.0   3441.3   7.4896 26401.3
 02 08 2016  09 39  -15.4776 26176.8   3441.5   7.4899 26402.0
 02 08 2016  09 40  -15.4753 26178.6   3442.4   7.4912 26403.9
 02 08 2016  09 41  -15.4740 26179.1   3441.9   7.4900 26404.4
 02 08 2016  09 42  -15.4734 26178.9   3441.5   7.4892 26404.1
 02 08 2016  09 43  -15.4732 26177.7   3440.0   7.4864 26402.8
 02 08 2016  09 44  -15.4737 26177.1   3439.4   7.4852 26402.1
 02 08 2016  09 45  -15.4754 26178.0   3439.3   7.4848 26402.9
 02 08 2016  09 46  -15.4773 26178.6   3439.2   7.4844 26403.5
 02 08 2016  09 47  -15.4783 26179.8   3439.6   7.4848 26404.8
 02 08 2016  09 48  -15.4775 26180.5   3440.2   7.4859 26405.6
 02 08 2016  09 49  -15.4757 26181.3   3440.6   7.4866 26406.4
 02 08 2016  09 50  -15.4743 26181.7   3440.4   7.4861 26406.7
 02 08 2016  09 51  -15.4735 26182.1   3440.5   7.4862 26407.2
 02 08 2016  09 52  -15.4728 26182.5   3440.3   7.4855 26407.6
 02 08 2016  09 53  -15.4724 26182.7   3440.0   7.4850 26407.7
 02 08 2016  09 54  -15.4725 26182.6   3439.8   7.4845 26407.6
 02 08 2016  09 55  -15.4727 26182.6   3439.0   7.4828 26407.5
 02 08 2016  09 56  -15.4728 26182.4   3439.0   7.4828 26407.2
 02 08 2016  09 57  -15.4731 26182.1   3438.6   7.4820 26406.9
 02 08 2016  09 58  -15.4733 26182.0   3438.5   7.4819 26406.8
 02 08 2016  09 59  -15.4734 26182.0   3437.9   7.4806 26406.7
 02 08 2016  10 00  -15.4735 26181.9   3438.3   7.4815 26406.7
 02 08 2016  10 01  -15.4737 26181.8   3438.3   7.4814 26406.6
 02 08 2016  10 02  -15.4740 26181.7   3438.3   7.4814 26406.5
 02 08 2016  10 03  -15.4737 26181.7   3438.2   7.4814 26406.5
 02 08 2016  10 04  -15.4735 26181.6   3438.1   7.4811 26406.4
 02 08 2016  10 05  -15.4736 26181.5   3438.1   7.4811 26406.2
 02 08 2016  10 06  -15.4738 26181.3   3438.1   7.4812 26406.1
 02 08 2016  10 07  -15.4742 26181.2   3438.0   7.4811 26406.0
 02 08 2016  10 08  -15.4747 26181.1   3438.0   7.4810 26405.9
 02 08 2016  10 09  -15.4748 26181.0   3438.1   7.4813 26405.7
 02 08 2016  10 10  -15.4750 26180.8   3438.4   7.4820 26405.6
 02 08 2016  10 11  -15.4751 26180.6   3438.1   7.4815 26405.4
 02 08 2016  10 12  -15.4752 26180.5   3438.4   7.4821 26405.4
 02 08 2016  10 13  -15.4753 26180.4   3438.4   7.4822 26405.3
 02 08 2016  10 14  -15.4753 26180.2   3438.9   7.4833 26405.1
 02 08 2016  10 15  -15.4750 26179.8   3438.9   7.4834 26404.6
 02 08 2016  10 16  -15.4754 26179.6   3438.8   7.4832 26404.5
 02 08 2016  10 17  -15.4759 26179.4   3439.4   7.4845 26404.4
 02 08 2016  10 18  -15.4764 26179.3   3439.3   7.4844 26404.2
 02 08 2016  10 19  -15.4764 26179.3   3439.4   7.4845 26404.2
 02 08 2016  10 20  -15.4757 26179.2   3440.0   7.4858 26404.2
 02 08 2016  10 21  -15.4751 26179.1   3440.0   7.4859 26404.1
 02 08 2016  10 22  -15.4753 26179.3   3440.3   7.4866 26404.4
 02 08 2016  10 23  -15.4754 26179.4   3440.7   7.4873 26404.5
 02 08 2016  10 24  -15.4755 26179.3   3441.1   7.4882 26404.5
 02 08 2016  10 25  -15.4757 26179.0   3440.8   7.4876 26404.2
 02 08 2016  10 26  -15.4748 26178.9   3441.5   7.4892 26404.2
 02 08 2016  10 27  -15.4745 26179.0   3441.5   7.4892 26404.2
 02 08 2016  10 28  -15.4752 26178.9   3441.7   7.4896 26404.2
 02 08 2016  10 29  -15.4751 26178.9   3442.1   7.4905 26404.2
 02 08 2016  10 30  -15.4750 26178.6   3442.3   7.4911 26403.9
 02 08 2016  10 31  -15.4750 26178.5   3442.3   7.4909 26403.9
 02 08 2016  10 32  -15.4753 26178.6   3442.3   7.4911 26403.9
 02 08 2016  10 33  -15.4752 26178.4   3442.6   7.4916 26403.8
 02 08 2016  10 34  -15.4753 26178.3   3442.8   7.4922 26403.8
 02 08 2016  10 35  -15.4753 26178.1   3442.6   7.4919 26403.5
 02 08 2016  10 36  -15.4748 26178.0   3443.5   7.4938 26403.5
 02 08 2016  10 37  -15.4750 26178.0   3443.7   7.4942 26403.6
 02 08 2016  10 38  -15.4752 26178.1   3443.9   7.4947 26403.7
 02 08 2016  10 39  -15.4755 26178.2   3444.1   7.4949 26403.8
 02 08 2016  10 40  -15.4751 26178.2   3444.7   7.4963 26403.9
 02 08 2016  10 41  -15.4745 26178.5   3445.1   7.4971 26404.2
 02 08 2016  10 42  -15.4745 26179.0   3445.3   7.4973 26404.7
 02 08 2016  10 43  -15.4736 26179.5   3445.7   7.4981 26405.3
 02 08 2016  10 44  -15.4729 26180.0   3446.0   7.4986 26405.8
 02 08 2016  10 45  -15.4720 26180.6   3446.1   7.4987 26406.4
 02 08 2016  10 46  -15.4710 26181.3   3446.6   7.4994 26407.1
 02 08 2016  10 47  -15.4704 26181.7   3446.6   7.4994 26407.6
 02 08 2016  10 48  -15.4695 26182.2   3447.2   7.5006 26408.2
 02 08 2016  10 49  -15.4685 26182.5   3447.0   7.5000 26408.4
 02 08 2016  10 50  -15.4675 26182.7   3447.0   7.5000 26408.6
 02 08 2016  10 51  -15.4675 26182.8   3446.8   7.4995 26408.7
 02 08 2016  10 52  -15.4676 26182.8   3446.9   7.4998 26408.8
 02 08 2016  10 53  -15.4679 26182.7   3447.0   7.4999 26408.6
 02 08 2016  10 54  -15.4683 26182.6   3447.0   7.5000 26408.5
 02 08 2016  10 55  -15.4686 26182.6   3446.7   7.4994 26408.4
 02 08 2016  10 56  -15.4688 26182.6   3447.4   7.5008 26408.6
 02 08 2016  10 57  -15.4690 26182.7   3447.5   7.5010 26408.7
 02 08 2016  10 58  -15.4690 26182.8   3447.9   7.5019 26408.9
 02 08 2016  10 59  -15.4688 26183.0   3448.2   7.5025 26409.1
 02 08 2016  11 00  -15.4674 26183.5   3448.5   7.5030 26409.6
 02 08 2016  11 01  -15.4663 26183.7   3448.7   7.5034 26409.9
 02 08 2016  11 02  -15.4660 26183.8   3448.6   7.5031 26410.0
 02 08 2016  11 03  -15.4659 26183.9   3449.1   7.5041 26410.1
 02 08 2016  11 04  -15.4659 26184.0   3448.8   7.5035 26410.1
 02 08 2016  11 05  -15.4662 26183.8   3448.8   7.5036 26410.0
 02 08 2016  11 06  -15.4665 26183.9   3448.8   7.5035 26410.1
 02 08 2016  11 07  -15.4669 26183.9   3449.0   7.5039 26410.1
 02 08 2016  11 08  -15.4671 26184.1   3449.3   7.5045 26410.3
 02 08 2016  11 09  -15.4665 26184.4   3449.7   7.5053 26410.6
 02 08 2016  11 10  -15.4660 26184.6   3450.1   7.5061 26410.9
 02 08 2016  11 11  -15.4657 26184.8   3450.1   7.5060 26411.1
 02 08 2016  11 12  -15.4659 26184.7   3449.7   7.5052 26411.0
 02 08 2016  11 13  -15.4660 26184.6   3449.8   7.5055 26410.9
 02 08 2016  11 14  -15.4661 26184.6   3449.8   7.5054 26410.9
 02 08 2016  11 15  -15.4660 26184.4   3450.0   7.5059 26410.7
 02 08 2016  11 16  -15.4658 26184.4   3449.5   7.5048 26410.6
 02 08 2016  11 17  -15.4654 26184.3   3450.0   7.5059 26410.6
 02 08 2016  11 18  -15.4652 26184.3   3449.7   7.5053 26410.6
 02 08 2016  11 19  -15.4654 26184.2   3449.7   7.5053 26410.5
 02 08 2016  11 20  -15.4652 26184.2   3449.7   7.5054 26410.5
 02 08 2016  11 21  -15.4647 26184.4   3449.7   7.5054 26410.7
 02 08 2016  11 22  -15.4650 26184.2   3449.4   7.5047 26410.5
 02 08 2016  11 23  -15.4656 26183.9   3449.2   7.5043 26410.1
 02 08 2016  11 24  -15.4655 26183.7   3449.1   7.5043 26409.9
 02 08 2016  11 25  -15.4652 26184.0   3449.6   7.5053 26410.3
 02 08 2016  11 26  -15.4656 26184.2   3449.3   7.5046 26410.4
 02 08 2016  11 27  -15.4652 26184.7   3449.9   7.5056 26411.0
 02 08 2016  11 28  -15.4641 26185.4   3450.2   7.5060 26411.7
 02 08 2016  11 29  -15.4639 26185.9   3450.0   7.5056 26412.2
 02 08 2016  11 30  -15.4638 26186.3   3450.3   7.5061 26412.6
 02 08 2016  11 31  -15.4633 26186.9   3450.5   7.5063 26413.2
 02 08 2016  11 32  -15.4631 26187.5   3450.2   7.5054 26413.8
 02 08 2016  11 33  -15.4630 26188.3   3450.5   7.5060 26414.7
 02 08 2016  11 34  -15.4626 26189.7   3451.1   7.5068 26416.1
 02 08 2016  11 35  -15.4618 26191.2   3451.3   7.5067 26417.6
 02 08 2016  11 36  -15.4598 26193.1   3451.8   7.5073 26419.5
 02 08 2016  11 37  -15.4576 26194.9   3452.2   7.5077 26421.4
 02 08 2016  11 38  -15.4559 26196.6   3451.7   7.5061 26423.0
 02 08 2016  11 39  -15.4545 26197.6   3450.9   7.5042 26424.0
 02 08 2016  11 40  -15.4538 26198.8   3449.7   7.5012 26424.9
 02 08 2016  11 41  -15.4536 26199.3   3448.6   7.4987 26425.3
 02 08 2016  11 42  -15.4541 26199.3   3447.5   7.4964 26425.2
 02 08 2016  11 43  -15.4561 26199.1   3446.5   7.4942 26424.8
 02 08 2016  11 44  -15.4580 26198.7   3446.1   7.4935 26424.4
 02 08 2016  11 45  -15.4599 26198.7   3446.2   7.4938 26424.4
 02 08 2016  11 46  -15.4615 26199.1   3446.3   7.4939 26424.8
 02 08 2016  11 47  -15.4624 26199.3   3446.3   7.4938 26425.0
 02 08 2016  11 48  -15.4616 26200.3   3447.2   7.4953 26426.1
 02 08 2016  11 49  -15.4611 26200.9   3447.3   7.4954 26426.7
 02 08 2016  11 50  -15.4610 26201.4   3447.3   7.4954 26427.2
 02 08 2016  11 51  -15.4613 26201.8   3447.2   7.4950 26427.6
 02 08 2016  11 52  -15.4623 26201.5   3447.1   7.4949 26427.3
 02 08 2016  11 53  -15.4619 26201.6   3447.2   7.4950 26427.4
 02 08 2016  11 54  -15.4623 26201.6   3447.0   7.4947 26427.4
 02 08 2016  11 55  -15.4630 26201.4   3446.9   7.4944 26427.1
 02 08 2016  11 56  -15.4636 26201.4   3447.1   7.4948 26427.2
 02 08 2016  11 57  -15.4641 26200.9   3447.1   7.4950 26426.7
 02 08 2016  11 58  -15.4634 26201.2   3447.8   7.4964 26427.1
 02 08 2016  11 59  -15.4629 26201.1   3448.0   7.4969 26427.0
 02 08 2016  12 00  -15.4625 26201.3   3448.3   7.4975 26427.2
 02 08 2016  12 01  -15.4624 26201.5   3448.5   7.4978 26427.4
 02 08 2016  12 02  -15.4629 26200.9   3448.0   7.4970 26426.8
 02 08 2016  12 03  -15.4656 26199.9   3447.6   7.4964 26425.8
 02 08 2016  12 04  -15.4662 26199.8   3447.9   7.4971 26425.7
 02 08 2016  12 05  -15.4650 26200.6   3448.6   7.4984 26426.6
 02 08 2016  12 06  -15.4642 26201.4   3448.9   7.4988 26427.4
 02 08 2016  12 07  -15.4635 26202.3   3449.1   7.4990 26428.4
 02 08 2016  12 08  -15.4635 26202.6   3448.5   7.4976 26428.5
 02 08 2016  12 09  -15.4640 26202.6   3448.1   7.4967 26428.5
 02 08 2016  12 10  -15.4656 26202.2   3447.4   7.4952 26428.0
 02 08 2016  12 11  -15.4667 26201.7   3447.3   7.4951 26427.5
 02 08 2016  12 12  -15.4656 26202.6   3448.1   7.4968 26428.5
 02 08 2016  12 13  -15.4659 26202.6   3447.9   7.4962 26428.5
 02 08 2016  12 14  -15.4661 26203.3   3447.6   7.4954 26429.1
 02 08 2016  12 15  -15.4646 26204.9   3448.3   7.4965 26430.8
 02 08 2016  12 16  -15.4641 26206.4   3448.8   7.4972 26432.4
 02 08 2016  12 17  -15.4640 26207.3   3448.7   7.4967 26433.2
 02 08 2016  12 18  -15.4629 26208.9   3448.8   7.4964 26434.8
 02 08 2016  12 19  -15.4620 26210.1   3448.9   7.4963 26436.0
 02 08 2016  12 20  -15.4619 26211.6   3449.0   7.4962 26437.5
 02 08 2016  12 21  -15.4611 26212.6   3448.9   7.4956 26438.5
 02 08 2016  12 22  -15.4609 26213.4   3448.4   7.4943 26439.2
 02 08 2016  12 23  -15.4614 26214.3   3448.0   7.4931 26440.1
 02 08 2016  12 24  -15.4611 26215.2   3447.9   7.4926 26441.0
 02 08 2016  12 25  -15.4620 26215.4   3446.8   7.4902 26441.1
 02 08 2016  12 26  -15.4630 26215.2   3446.1   7.4888 26440.7
 02 08 2016  12 27  -15.4634 26214.8   3445.9   7.4885 26440.3
 02 08 2016  12 28  -15.4656 26213.1   3444.4   7.4857 26438.5
 02 08 2016  12 29  -15.4684 26211.0   3443.3   7.4840 26436.2
 02 08 2016  12 30  -15.4707 26209.3   3442.8   7.4833 26434.4
 02 08 2016  12 31  -15.4727 26207.9   3442.7   7.4835 26433.0
 02 08 2016  12 32  -15.4746 26206.9   3442.5   7.4835 26432.0
 02 08 2016  12 33  -15.4764 26206.1   3442.5   7.4837 26431.3
 02 08 2016  12 34  -15.4769 26206.0   3443.2   7.4851 26431.2
 02 08 2016  12 35  -15.4774 26206.5   3443.4   7.4855 26431.7
 02 08 2016  12 36  -15.4772 26207.9   3444.4   7.4873 26433.3
 02 08 2016  12 37  -15.4769 26209.3   3444.8   7.4878 26434.7
 02 08 2016  12 38  -15.4778 26210.4   3444.5   7.4868 26435.8
 02 08 2016  12 39  -15.4778 26211.9   3444.7   7.4869 26437.3
 02 08 2016  12 40  -15.4775 26213.1   3444.7   7.4864 26438.4
 02 08 2016  12 41  -15.4768 26213.6   3443.9   7.4846 26438.9
 02 08 2016  12 42  -15.4765 26213.4   3442.6   7.4819 26438.5
 02 08 2016  12 43  -15.4780 26212.3   3441.1   7.4788 26437.2
 02 08 2016  12 44  -15.4813 26210.2   3439.7   7.4766 26435.0
 02 08 2016  12 45  -15.4843 26208.1   3439.5   7.4767 26432.8
 02 08 2016  12 46  -15.4854 26207.4   3440.6   7.4792 26432.3
 02 08 2016  12 47  -15.4848 26208.4   3442.6   7.4832 26433.5
 02 08 2016  12 48  -15.4839 26209.7   3443.9   7.4858 26435.0
 02 08 2016  12 49  -15.4834 26211.3   3444.8   7.4871 26436.7
 02 08 2016  12 50  -15.4832 26213.4   3445.8   7.4886 26438.9
 02 08 2016  12 51  -15.4813 26215.9   3446.5   7.4896 26441.5
 02 08 2016  12 52  -15.4810 26216.4   3445.3   7.4867 26441.8
 02 08 2016  12 53  -15.4830 26215.0   3443.5   7.4834 26440.2
 02 08 2016  12 54  -15.4854 26213.7   3442.7   7.4820 26438.9
 02 08 2016  12 55  -15.4863 26213.5   3443.0   7.4827 26438.7
 02 08 2016  12 56  -15.4869 26213.8   3443.5   7.4837 26439.0
 02 08 2016  12 57  -15.4877 26213.6   3443.4   7.4836 26438.8
 02 08 2016  12 58  -15.4881 26213.6   3443.8   7.4844 26438.8
 02 08 2016  12 59  -15.4882 26213.5   3444.1   7.4851 26438.8
 02 08 2016  13 00  -15.4887 26213.4   3444.2   7.4852 26438.7
 02 08 2016  13 01  -15.4886 26213.8   3444.6   7.4861 26439.1
 02 08 2016  13 02  -15.4887 26214.2   3444.9   7.4866 26439.6
 02 08 2016  13 03  -15.4892 26214.6   3445.2   7.4871 26440.0
 02 08 2016  13 04  -15.4898 26214.9   3445.3   7.4871 26440.3
 02 08 2016  13 05  -15.4901 26215.4   3445.4   7.4872 26440.8
 02 08 2016  13 06  -15.4903 26215.7   3445.4   7.4873 26441.2
 02 08 2016  13 07  -15.4904 26216.0   3445.5   7.4874 26441.5
 02 08 2016  13 08  -15.4903 26216.7   3445.7   7.4876 26442.1
 02 08 2016  13 09  -15.4901 26217.5   3445.9   7.4877 26443.0
 02 08 2016  13 10  -15.4903 26218.2   3445.8   7.4873 26443.7
 02 08 2016  13 11  -15.4904 26218.9   3445.6   7.4868 26444.3
 02 08 2016  13 12  -15.4906 26219.5   3445.6   7.4866 26444.9
 02 08 2016  13 13  -15.4908 26220.2   3445.7   7.4866 26445.6
 02 08 2016  13 14  -15.4910 26220.7   3445.5   7.4860 26446.1
 02 08 2016  13 15  -15.4913 26220.9   3445.1   7.4852 26446.2
 02 08 2016  13 16  -15.4913 26221.1   3445.0   7.4849 26446.5
 02 08 2016  13 17  -15.4910 26221.8   3445.2   7.4851 26447.2
 02 08 2016  13 18  -15.4911 26222.3   3445.4   7.4852 26447.7
 02 08 2016  13 19  -15.4909 26223.4   3445.9   7.4860 26448.9
 02 08 2016  13 20  -15.4909 26224.5   3446.2   7.4864 26450.0
 02 08 2016  13 21  -15.4892 26227.4   3447.9   7.4893 26453.0
 02 08 2016  13 22  -15.4878 26230.7   3449.0   7.4907 26456.5
 02 08 2016  13 23  -15.4878 26232.1   3448.2   7.4885 26457.8
 02 08 2016  13 24  -15.4889 26231.2   3445.8   7.4837 26456.5
 02 08 2016  13 25  -15.4899 26229.7   3444.1   7.4805 26454.8
 02 08 2016  13 26  -15.4903 26228.7   3443.5   7.4794 26453.7
 02 08 2016  13 27  -15.4910 26227.2   3442.8   7.4783 26452.2
 02 08 2016  13 28  -15.4918 26225.7   3442.6   7.4784 26450.7
 02 08 2016  13 29  -15.4918 26226.0   3443.7   7.4806 26451.1
 02 08 2016  13 30  -15.4917 26227.0   3444.8   7.4827 26452.2
 02 08 2016  13 31  -15.4910 26227.9   3445.5   7.4840 26453.3
 02 08 2016  13 32  -15.4902 26229.0   3445.9   7.4845 26454.4
 02 08 2016  13 33  -15.4898 26229.8   3445.9   7.4842 26455.2
 02 08 2016  13 34  -15.4902 26230.3   3445.5   7.4833 26455.6
 02 08 2016  13 35  -15.4896 26231.4   3445.8   7.4836 26456.8
 02 08 2016  13 36  -15.4897 26232.4   3445.7   7.4832 26457.7
 02 08 2016  13 37  -15.4895 26233.1   3445.2   7.4818 26458.3
 02 08 2016  13 38  -15.4902 26232.2   3443.8   7.4791 26457.3
 02 08 2016  13 39  -15.4901 26232.9   3444.5   7.4803 26458.1
 02 08 2016  13 40  -15.4887 26235.6   3446.0   7.4829 26460.9
 02 08 2016  13 41  -15.4890 26237.1   3445.5   7.4814 26462.3
 02 08 2016  13 42  -15.4890 26237.1   3444.5   7.4792 26462.2
 02 08 2016  13 43  -15.4896 26236.6   3443.6   7.4774 26461.6
 02 08 2016  13 44  -15.4883 26238.2   3444.9   7.4797 26463.4
 02 08 2016  13 45  -15.4865 26241.1   3446.2   7.4818 26466.4
 02 08 2016  13 46  -15.4862 26242.8   3446.0   7.4808 26468.1
 02 08 2016  13 47  -15.4855 26243.9   3444.9   7.4781 26469.0
 02 08 2016  13 48  -15.4863 26243.3   3443.3   7.4750 26468.2
 02 08 2016  13 49  -15.4854 26244.1   3443.2   7.4744 26469.0
 02 08 2016  13 50  -15.4863 26242.8   3441.1   7.4703 26467.4
 02 08 2016  13 51  -15.4886 26239.0   3438.4   7.4656 26463.4
 02 08 2016  13 52  -15.4899 26235.5   3437.4   7.4643 26459.8
 02 08 2016  13 53  -15.4894 26234.0   3438.1   7.4664 26458.3
 02 08 2016  13 54  -15.4890 26233.1   3438.7   7.4679 26457.5
 02 08 2016  13 55  -15.4901 26231.5   3438.7   7.4683 26455.9
 02 08 2016  13 56  -15.4904 26231.2   3439.4   7.4699 26455.7
 02 08 2016  13 57  -15.4895 26232.4   3440.8   7.4726 26457.1
 02 08 2016  13 58  -15.4883 26234.5   3442.1   7.4749 26459.3
 02 08 2016  13 59  -15.4879 26234.6   3442.0   7.4745 26459.4
 02 08 2016  14 00  -15.4875 26235.1   3442.1   7.4746 26460.0
 02 08 2016  14 01  -15.4872 26235.4   3441.6   7.4735 26460.2
 02 08 2016  14 02  -15.4870 26235.6   3441.2   7.4726 26460.3
 02 08 2016  14 03  -15.4867 26236.4   3441.2   7.4723 26461.1
 02 08 2016  14 04  -15.4871 26236.3   3440.4   7.4707 26460.9
 02 08 2016  14 05  -15.4875 26235.8   3439.7   7.4692 26460.3
 02 08 2016  14 06  -15.4871 26236.4   3439.8   7.4693 26460.9
 02 08 2016  14 07  -15.4874 26236.0   3439.1   7.4678 26460.4
 02 08 2016  14 08  -15.4876 26235.4   3438.8   7.4674 26459.8
 02 08 2016  14 09  -15.4870 26235.5   3438.9   7.4676 26459.9
 02 08 2016  14 10  -15.4862 26235.6   3439.0   7.4678 26460.1
 02 08 2016  14 11  -15.4857 26236.7   3439.4   7.4684 26461.2
 02 08 2016  14 12  -15.4845 26239.5   3440.5   7.4699 26464.1
 02 08 2016  14 13  -15.4843 26239.9   3439.3   7.4673 26464.3
 02 08 2016  14 14  -15.4847 26239.9   3438.5   7.4656 26464.2
 02 08 2016  14 15  -15.4834 26242.7   3439.4   7.4666 26467.1
 02 08 2016  14 16  -15.4835 26244.8   3438.6   7.4644 26469.1
 02 08 2016  14 17  -15.4845 26244.6   3436.3   7.4595 26468.6
 02 08 2016  14 18  -15.4856 26243.6   3434.2   7.4553 26467.4
 02 08 2016  14 19  -15.4861 26243.0   3433.5   7.4540 26466.7
 02 08 2016  14 20  -15.4852 26245.8   3435.0   7.4564 26469.7
 02 08 2016  14 21  -15.4837 26249.9   3437.2   7.4600 26474.0
 02 08 2016  14 22  -15.4820 26255.8   3439.2   7.4627 26480.1
 02 08 2016  14 23  -15.4809 26259.8   3438.9   7.4608 26484.1
 02 08 2016  14 24  -15.4806 26260.3   3435.9   7.4541 26484.2
 02 08 2016  14 25  -15.4814 26258.1   3432.4   7.4474 26481.5
 02 08 2016  14 26  -15.4819 26255.4   3429.9   7.4428 26478.5
 02 08 2016  14 27  -15.4821 26253.9   3429.4   7.4421 26476.9
 02 08 2016  14 28  -15.4824 26253.9   3429.9   7.4432 26477.0
 02 08 2016  14 29  -15.4827 26255.2   3430.6   7.4443 26478.3
 02 08 2016  14 30  -15.4827 26256.3   3430.9   7.4447 26479.6
 02 08 2016  14 31  -15.4828 26256.9   3430.5   7.4436 26480.1
 02 08 2016  14 32  -15.4832 26256.8   3429.6   7.4416 26479.8
 02 08 2016  14 33  -15.4840 26255.9   3428.2   7.4389 26478.7
 02 08 2016  14 34  -15.4845 26253.5   3426.1   7.4352 26476.2
 02 08 2016  14 35  -15.4860 26250.3   3424.2   7.4320 26472.7
 02 08 2016  14 36  -15.4871 26248.2   3423.6   7.4312 26470.6
 02 08 2016  14 37  -15.4886 26246.1   3422.7   7.4300 26468.3
 02 08 2016  14 38  -15.4906 26242.3   3421.5   7.4284 26464.4
 02 08 2016  14 39  -15.4924 26238.5   3421.0   7.4285 26460.6
 02 08 2016  14 40  -15.4941 26234.8   3421.1   7.4297 26457.0
 02 08 2016  14 41  -15.4944 26232.3   3422.1   7.4324 26454.6
 02 08 2016  14 42  -15.4950 26229.8   3422.9   7.4348 26452.2
 02 08 2016  14 43  -15.4965 26227.9   3423.8   7.4374 26450.5
 02 08 2016  14 44  -15.4970 26226.6   3424.7   7.4397 26449.3
 02 08 2016  14 45  -15.4979 26225.2   3425.4   7.4416 26447.9
 02 08 2016  14 46  -15.4988 26225.1   3427.0   7.4450 26448.0
 02 08 2016  14 47  -15.4988 26227.0   3429.3   7.4493 26450.2
 02 08 2016  14 48  -15.4980 26230.0   3431.3   7.4529 26453.5
 02 08 2016  14 49  -15.4970 26233.4   3432.9   7.4553 26457.1
 02 08 2016  14 50  -15.4960 26236.1   3433.1   7.4551 26459.8
 02 08 2016  14 51  -15.4958 26240.8   3434.4   7.4565 26464.6
 02 08 2016  14 52  -15.4943 26245.4   3435.2   7.4570 26469.3
 02 08 2016  14 53  -15.4933 26247.1   3433.9   7.4537 26470.8
 02 08 2016  14 54  -15.4927 26247.3   3432.1   7.4498 26470.7
 02 08 2016  14 55  -15.4916 26249.6   3432.3   7.4495 26473.0
 02 08 2016  14 56  -15.4902 26253.3   3432.4   7.4487 26476.8
 02 08 2016  14 57  -15.4904 26253.8   3430.0   7.4433 26477.0
 02 08 2016  14 58  -15.4918 26251.1   3426.2   7.4360 26473.7
 02 08 2016  14 59  -15.4939 26247.7   3423.4   7.4310 26470.1
 02 08 2016  15 00  -15.4954 26245.2   3421.8   7.4282 26467.3
 02 08 2016  15 01  -15.4979 26242.8   3420.6   7.4262 26464.8
 02 08 2016  15 02  -15.4998 26241.4   3421.0   7.4275 26463.5
 02 08 2016  15 03  -15.4993 26242.4   3422.8   7.4312 26464.7
 02 08 2016  15 04  -15.4984 26243.5   3424.0   7.4333 26465.9
 02 08 2016  15 05  -15.4985 26243.1   3424.0   7.4336 26465.5
 02 08 2016  15 06  -15.4991 26243.3   3423.9   7.4332 26465.7
 02 08 2016  15 07  -15.5024 26238.3   3421.3   7.4291 26460.4
 02 08 2016  15 08  -15.5012 26238.8   3423.6   7.4338 26461.2
 02 08 2016  15 09  -15.5002 26242.2   3426.4   7.4389 26464.9
 02 08 2016  15 10  -15.5020 26240.5   3424.5   7.4353 26463.0
 02 08 2016  15 11  -15.5037 26236.9   3422.5   7.4321 26459.2
 02 08 2016  15 12  -15.5064 26231.0   3419.8   7.4279 26453.0
 02 08 2016  15 13  -15.5078 26225.9   3419.5   7.4286 26447.9
 02 08 2016  15 14  -15.5090 26221.2   3419.6   7.4303 26443.3
 02 08 2016  15 15  -15.5092 26218.9   3422.1   7.4363 26441.3
 02 08 2016  15 16  -15.5087 26219.2   3424.9   7.4422 26442.0
 02 08 2016  15 17  -15.5095 26218.8   3426.5   7.4456 26441.8
 02 08 2016  15 18  -15.5094 26218.8   3427.8   7.4484 26441.9
 02 08 2016  15 19  -15.5088 26219.6   3429.4   7.4517 26442.9
 02 08 2016  15 20  -15.5089 26220.0   3430.2   7.4533 26443.5
 02 08 2016  15 21  -15.5098 26218.3   3429.0   7.4512 26441.6
 02 08 2016  15 22  -15.5122 26214.2   3426.3   7.4465 26437.1
 02 08 2016  15 23  -15.5128 26212.6   3427.1   7.4487 26435.7
 02 08 2016  15 24  -15.5123 26213.7   3430.0   7.4546 26437.1
 02 08 2016  15 25  -15.5110 26216.7   3432.8   7.4598 26440.5
 02 08 2016  15 26  -15.5100 26220.8   3435.1   7.4637 26444.8
 02 08 2016  15 27  -15.5101 26223.8   3435.4   7.4635 26447.9
 02 08 2016  15 28  -15.5110 26224.8   3434.1   7.4604 26448.7
 02 08 2016  15 29  -15.5118 26225.0   3432.8   7.4576 26448.8
 02 08 2016  15 30  -15.5120 26225.6   3432.3   7.4562 26449.3
 02 08 2016  15 31  -15.5125 26226.0   3431.6   7.4547 26449.5
 02 08 2016  15 32  -15.5128 26226.7   3431.3   7.4538 26450.2
 02 08 2016  15 33  -15.5130 26227.6   3431.2   7.4534 26451.1
 02 08 2016  15 34  -15.5110 26231.2   3432.9   7.4560 26454.9
 02 08 2016  15 35  -15.5136 26229.9   3430.3   7.4507 26453.2
 02 08 2016  15 36  -15.5159 26226.6   3427.0   7.4446 26449.6
 02 08 2016  15 37  -15.5162 26223.8   3425.3   7.4418 26446.6
 02 08 2016  15 38  -15.5156 26224.0   3426.8   7.4448 26446.9
 02 08 2016  15 39  -15.5144 26226.4   3429.5   7.4501 26449.7
 02 08 2016  15 40  -15.5134 26230.3   3431.5   7.4533 26453.8
 02 08 2016  15 41  -15.5120 26234.4   3433.1   7.4554 26458.1
 02 08 2016  15 42  -15.5126 26235.6   3431.6   7.4520 26459.0
 02 08 2016  15 43  -15.5129 26235.7   3429.8   7.4480 26458.9
 02 08 2016  15 44  -15.5123 26235.6   3428.5   7.4453 26458.7
 02 08 2016  15 45  -15.5146 26232.0   3424.4   7.4375 26454.6
 02 08 2016  15 46  -15.5165 26224.7   3419.7   7.4295 26446.7
 02 08 2016  15 47  -15.5183 26216.8   3417.3   7.4266 26438.6
 02 08 2016  15 48  -15.5179 26214.5   3419.8   7.4326 26436.6
 02 08 2016  15 49  -15.5159 26216.9   3424.5   7.4419 26439.7
 02 08 2016  15 50  -15.5157 26218.5   3426.7   7.4462 26441.5
 02 08 2016  15 51  -15.5140 26222.0   3429.4   7.4509 26445.3
 02 08 2016  15 52  -15.5143 26224.5   3430.2   7.4521 26447.9
 02 08 2016  15 53  -15.5151 26225.3   3429.3   7.4499 26448.6
 02 08 2016  15 54  -15.5151 26225.2   3428.1   7.4473 26448.3
 02 08 2016  15 55  -15.5159 26224.2   3426.3   7.4439 26447.1
 02 08 2016  15 56  -15.5163 26222.4   3425.2   7.4419 26445.1
 02 08 2016  15 57  -15.5152 26222.6   3426.1   7.4438 26445.4
 02 08 2016  15 58  -15.5131 26225.8   3428.4   7.4478 26448.9
 02 08 2016  15 59  -15.5140 26227.6   3428.4   7.4473 26450.7
 02 08 2016  16 00  -15.5143 26228.2   3427.3   7.4449 26451.2
 02 08 2016  16 01  -15.5137 26228.3   3426.5   7.4430 26451.2
 02 08 2016  16 02  -15.5130 26229.3   3426.4   7.4425 26452.2
 02 08 2016  16 03  -15.5130 26229.3   3425.4   7.4403 26452.0
 02 08 2016  16 04  -15.5152 26225.6   3422.3   7.4348 26448.0
 02 08 2016  16 05  -15.5145 26225.3   3422.2   7.4347 26447.7
 02 08 2016  16 06  -15.5146 26224.4   3422.1   7.4346 26446.8
 02 08 2016  16 07  -15.5134 26226.5   3423.7   7.4376 26449.0
 02 08 2016  16 08  -15.5135 26227.6   3423.5   7.4368 26450.1
 02 08 2016  16 09  -15.5180 26222.3   3418.8   7.4282 26444.2
 02 08 2016  16 10  -15.5175 26220.8   3418.5   7.4280 26442.7
 02 08 2016  16 11  -15.5171 26218.3   3417.5   7.4266 26440.1
 02 08 2016  16 12  -15.5178 26216.0   3417.4   7.4269 26437.8
 02 08 2016  16 13  -15.5175 26215.8   3418.7   7.4298 26437.8
 02 08 2016  16 14  -15.5175 26216.2   3419.5   7.4314 26438.3
 02 08 2016  16 15  -15.5185 26214.9   3419.0   7.4307 26437.0
 02 08 2016  16 16  -15.5182 26215.4   3419.6   7.4319 26437.5
 02 08 2016  16 17  -15.5180 26215.7   3419.9   7.4325 26437.8
 02 08 2016  16 18  -15.5188 26215.4   3419.6   7.4317 26437.4
 02 08 2016  16 19  -15.5190 26216.2   3419.9   7.4323 26438.3
 02 08 2016  16 20  -15.5189 26216.7   3420.0   7.4323 26438.8
 02 08 2016  16 21  -15.5201 26215.5   3418.6   7.4297 26437.5
 02 08 2016  16 22  -15.5206 26215.0   3418.3   7.4291 26437.0
 02 08 2016  16 23  -15.5204 26216.2   3419.1   7.4306 26438.2
 02 08 2016  16 24  -15.5205 26218.9   3420.7   7.4333 26441.1
 02 08 2016  16 25  -15.5209 26221.7   3421.3   7.4338 26443.9
 02 08 2016  16 26  -15.5209 26222.0   3420.0   7.4308 26444.1
 02 08 2016  16 27  -15.5214 26226.2   3422.0   7.4340 26448.5
 02 08 2016  16 28  -15.5199 26235.5   3426.0   7.4400 26458.3
 02 08 2016  16 29  -15.5195 26241.6   3425.8   7.4379 26464.3
 02 08 2016  16 30  -15.5210 26241.6   3421.6   7.4287 26463.7
 02 08 2016  16 31  -15.5225 26235.5   3415.0   7.4162 26456.8
 02 08 2016  16 32  -15.5230 26228.0   3410.6   7.4090 26448.8
 02 08 2016  16 33  -15.5225 26225.3   3410.7   7.4099 26446.1
 02 08 2016  16 34  -15.5220 26226.2   3412.6   7.4139 26447.3
 02 08 2016  16 35  -15.5219 26226.8   3414.1   7.4167 26448.1
 02 08 2016  16 36  -15.5211 26229.0   3415.8   7.4199 26450.5
 02 08 2016  16 37  -15.5219 26228.6   3414.9   7.4179 26450.0
 02 08 2016  16 38  -15.5211 26228.9   3415.2   7.4187 26450.3
 02 08 2016  16 39  -15.5225 26226.7   3413.3   7.4151 26447.8
 02 08 2016  16 40  -15.5217 26224.4   3412.7   7.4144 26445.5
 02 08 2016  16 41  -15.5198 26224.7   3414.2   7.4177 26446.0
 02 08 2016  16 42  -15.5185 26227.8   3417.2   7.4231 26449.5
 02 08 2016  16 43  -15.5184 26231.2   3419.0   7.4260 26453.1
 02 08 2016  16 44  -15.5189 26234.0   3419.3   7.4261 26455.9
 02 08 2016  16 45  -15.5204 26233.0   3417.3   7.4219 26454.6
 02 08 2016  16 46  -15.5210 26233.3   3416.6   7.4204 26454.9
 02 08 2016  16 47  -15.5217 26231.3   3414.8   7.4171 26452.7
 02 08 2016  16 48  -15.5240 26221.5   3408.3   7.4059 26442.1
 02 08 2016  16 49  -15.5258 26211.7   3405.4   7.4024 26432.0
 02 08 2016  16 50  -15.5261 26205.0   3405.6   7.4046 26425.4
 02 08 2016  16 51  -15.5252 26200.5   3408.3   7.4117 26421.3
 02 08 2016  16 52  -15.5243 26199.6   3412.0   7.4199 26420.8
 02 08 2016  16 53  -15.5234 26201.6   3416.7   7.4294 26423.4
 02 08 2016  16 54  -15.5225 26204.1   3420.0   7.4359 26426.4
 02 08 2016  16 55  -15.5218 26208.0   3423.0   7.4413 26430.6
 02 08 2016  16 56  -15.5218 26210.6   3424.0   7.4427 26433.3
 02 08 2016  16 57  -15.5183 26217.4   3428.3   7.4500 26440.6
 02 08 2016  16 58  -15.5194 26222.0   3428.6   7.4493 26445.2
 02 08 2016  16 59  -15.5193 26225.2   3428.0   7.4471 26448.2
 02 08 2016  17 00  -15.5191 26227.5   3427.2   7.4447 26450.4
 02 08 2016  17 01  -15.5204 26225.2   3422.8   7.4360 26447.6
 02 08 2016  17 02  -15.5212 26217.1   3418.0   7.4279 26439.0
 02 08 2016  17 03  -15.5193 26217.1   3420.1   7.4324 26439.2
 02 08 2016  17 04  -15.5200 26221.8   3422.1   7.4354 26444.1
 02 08 2016  17 05  -15.5236 26210.0   3412.6   7.4183 26431.2
 02 08 2016  17 06  -15.5257 26194.0   3407.0   7.4108 26414.7
 02 08 2016  17 07  -15.5206 26191.3   3413.0   7.4243 26412.7
 02 08 2016  17 08  -15.5177 26198.0   3421.3   7.4403 26420.5
 02 08 2016  17 09  -15.5183 26203.1   3424.8   7.4464 26426.0
 02 08 2016  17 10  -15.5203 26204.6   3424.9   7.4463 26427.4
 02 08 2016  17 11  -15.5226 26202.2   3421.8   7.4403 26424.7
 02 08 2016  17 12  -15.5239 26195.7   3417.3   7.4324 26417.6
 02 08 2016  17 13  -15.5239 26187.5   3414.8   7.4293 26409.2
 02 08 2016  17 14  -15.5225 26182.4   3416.0   7.4333 26404.3
 02 08 2016  17 15  -15.5214 26180.3   3418.6   7.4396 26402.5
 02 08 2016  17 16  -15.5206 26180.1   3421.7   7.4462 26402.7
 02 08 2016  17 17  -15.5190 26181.6   3424.9   7.4527 26404.7
 02 08 2016  17 18  -15.5180 26184.5   3427.6   7.4578 26407.9
 02 08 2016  17 19  -15.5178 26187.1   3428.8   7.4596 26410.6
 02 08 2016  17 20  -15.5181 26188.2   3428.9   7.4596 26411.7
 02 08 2016  17 21  -15.5176 26188.5   3428.9   7.4595 26412.0
 02 08 2016  17 22  -15.5165 26189.3   3429.4   7.4602 26412.9
 02 08 2016  17 23  -15.5160 26191.8   3430.8   7.4625 26415.6
 02 08 2016  17 24  -15.5151 26195.2   3431.8   7.4637 26419.0
 02 08 2016  17 25  -15.5147 26196.9   3431.5   7.4626 26420.7
 02 08 2016  17 26  -15.5150 26197.0   3430.0   7.4594 26420.6
 02 08 2016  17 27  -15.5149 26197.2   3429.4   7.4579 26420.8
 02 08 2016  17 28  -15.5155 26198.2   3429.0   7.4568 26421.6
 02 08 2016  17 29  -15.5158 26196.6   3426.4   7.4518 26419.8
 02 08 2016  17 30  -15.5163 26189.8   3422.1   7.4443 26412.4
 02 08 2016  17 31  -15.5158 26182.1   3420.4   7.4428 26404.6
 02 08 2016  17 32  -15.5147 26179.9   3423.2   7.4494 26402.8
 02 08 2016  17 33  -15.5140 26180.9   3425.8   7.4548 26404.1
 02 08 2016  17 34  -15.5133 26181.1   3427.5   7.4584 26404.5
 02 08 2016  17 35  -15.5124 26181.7   3428.2   7.4598 26405.2
 02 08 2016  17 36  -15.5124 26181.7   3428.9   7.4613 26405.3
 02 08 2016  17 37  -15.5125 26181.0   3429.3   7.4624 26404.6
 02 08 2016  17 38  -15.5119 26180.4   3429.6   7.4631 26404.1
 02 08 2016  17 39  -15.5107 26180.8   3430.6   7.4653 26404.7
 02 08 2016  17 40  -15.5101 26181.8   3431.3   7.4665 26405.7
 02 08 2016  17 41  -15.5097 26182.1   3432.1   7.4680 26406.1
 02 08 2016  17 42  -15.5093 26181.9   3431.7   7.4674 26405.8
 02 08 2016  17 43  -15.5088 26181.7   3431.6   7.4671 26405.7
 02 08 2016  17 44  -15.5082 26181.9   3432.1   7.4681 26405.9
 02 08 2016  17 45  -15.5078 26182.2   3432.7   7.4692 26406.2
 02 08 2016  17 46  -15.5072 26181.9   3432.5   7.4690 26406.0
 02 08 2016  17 47  -15.5068 26181.6   3432.5   7.4690 26405.6
 02 08 2016  17 48  -15.5069 26179.8   3431.6   7.4676 26403.8
 02 08 2016  17 49  -15.5066 26177.5   3430.4   7.4658 26401.3
 02 08 2016  17 50  -15.5054 26175.9   3430.9   7.4673 26399.8
 02 08 2016  17 51  -15.5040 26175.4   3431.8   7.4693 26399.4
 02 08 2016  17 52  -15.5033 26175.4   3432.7   7.4712 26399.5
 02 08 2016  17 53  -15.5032 26175.4   3433.1   7.4722 26399.6
 02 08 2016  17 54  -15.5024 26175.6   3433.8   7.4736 26399.9
 02 08 2016  17 55  -15.5012 26176.5   3434.9   7.4757 26400.9
 02 08 2016  17 56  -15.5000 26178.7   3436.0   7.4773 26403.3
 02 08 2016  17 57  -15.4997 26180.7   3436.6   7.4782 26405.3
 02 08 2016  17 58  -15.4997 26181.0   3435.5   7.4757 26405.4
 02 08 2016  17 59  -15.4995 26180.5   3434.5   7.4737 26404.8
 02 08 2016  18 00  -15.4991 26180.0   3434.7   7.4742 26404.4
 02 08 2016  18 01  -15.4983 26180.4   3434.7   7.4741 26404.8
 02 08 2016  18 02  -15.4978 26180.5   3434.4   7.4736 26404.8
 02 08 2016  18 03  -15.4976 26179.9   3433.9   7.4726 26404.1
 02 08 2016  18 04  -15.4973 26179.1   3433.2   7.4714 26403.3
 02 08 2016  18 05  -15.4968 26179.3   3433.9   7.4728 26403.6
 02 08 2016  18 06  -15.4962 26179.6   3434.4   7.4736 26403.9
 02 08 2016  18 07  -15.4957 26179.9   3434.6   7.4740 26404.2
 02 08 2016  18 08  -15.4956 26180.0   3434.0   7.4729 26404.2
 02 08 2016  18 09  -15.4954 26179.5   3433.9   7.4726 26403.7
 02 08 2016  18 10  -15.4952 26178.7   3433.8   7.4727 26402.9
 02 08 2016  18 11  -15.4947 26178.3   3434.1   7.4733 26402.6
 02 08 2016  18 12  -15.4941 26178.3   3434.6   7.4746 26402.6
 02 08 2016  18 13  -15.4940 26178.3   3434.5   7.4744 26402.6
 02 08 2016  18 14  -15.4937 26177.6   3434.3   7.4741 26402.0
 02 08 2016  18 15  -15.4931 26177.1   3434.8   7.4753 26401.5
 02 08 2016  18 16  -15.4925 26177.6   3435.3   7.4763 26402.1
 02 08 2016  18 17  -15.4927 26178.2   3436.1   7.4777 26402.7
 02 08 2016  18 18  -15.4923 26178.2   3436.4   7.4785 26402.8
 02 08 2016  18 19  -15.4924 26177.6   3435.7   7.4770 26402.1
 02 08 2016  18 20  -15.4921 26175.9   3435.2   7.4765 26400.4
 02 08 2016  18 21  -15.4908 26174.8   3435.5   7.4776 26399.3
 02 08 2016  18 22  -15.4899 26175.6   3437.2   7.4808 26400.3
 02 08 2016  18 23  -15.4892 26177.4   3438.8   7.4837 26402.3
 02 08 2016  18 24  -15.4883 26180.0   3440.3   7.4862 26405.1
 02 08 2016  18 25  -15.4872 26182.7   3441.4   7.4880 26407.9
 02 08 2016  18 26  -15.4869 26185.2   3442.2   7.4889 26410.5
 02 08 2016  18 27  -15.4869 26186.3   3441.5   7.4872 26411.5
 02 08 2016  18 28  -15.4868 26186.3   3440.6   7.4852 26411.4
 02 08 2016  18 29  -15.4862 26186.3   3439.7   7.4833 26411.2
 02 08 2016  18 30  -15.4858 26186.2   3439.6   7.4831 26411.1
 02 08 2016  18 31  -15.4854 26185.7   3439.1   7.4821 26410.6
 02 08 2016  18 32  -15.4848 26185.3   3438.7   7.4815 26410.1
 02 08 2016  18 33  -15.4847 26184.5   3438.2   7.4806 26409.3
 02 08 2016  18 34  -15.4843 26183.9   3438.2   7.4807 26408.6
 02 08 2016  18 35  -15.4845 26182.9   3437.5   7.4795 26407.6
 02 08 2016  18 36  -15.4844 26181.4   3437.2   7.4792 26406.0
 02 08 2016  18 37  -15.4843 26179.6   3436.5   7.4783 26404.2
 02 08 2016  18 38  -15.4839 26177.9   3436.5   7.4786 26402.4
 02 08 2016  18 39  -15.4834 26176.5   3436.8   7.4799 26401.2
 02 08 2016  18 40  -15.4829 26176.3   3438.1   7.4826 26401.1
 02 08 2016  18 41  -15.4824 26177.1   3438.8   7.4840 26402.1
 02 08 2016  18 42  -15.4824 26178.0   3440.0   7.4862 26403.0
 02 08 2016  18 43  -15.4821 26178.2   3440.3   7.4869 26403.3
 02 08 2016  18 44  -15.4822 26178.0   3440.1   7.4864 26403.1
 02 08 2016  18 45  -15.4822 26177.9   3440.3   7.4868 26403.0
 02 08 2016  18 46  -15.4822 26177.5   3440.0   7.4863 26402.6
 02 08 2016  18 47  -15.4823 26177.4   3440.0   7.4864 26402.4
 02 08 2016  18 48  -15.4823 26177.2   3440.4   7.4874 26402.3
 02 08 2016  18 49  -15.4822 26176.8   3440.1   7.4868 26401.9
 02 08 2016  18 50  -15.4818 26176.8   3441.0   7.4887 26402.0
 02 08 2016  18 51  -15.4817 26177.6   3441.7   7.4900 26402.9
 02 08 2016  18 52  -15.4816 26178.6   3441.8   7.4899 26403.9
 02 08 2016  18 53  -15.4818 26179.1   3442.2   7.4906 26404.4
 02 08 2016  18 54  -15.4819 26178.8   3442.2   7.4907 26404.1
 02 08 2016  18 55  -15.4820 26178.6   3442.4   7.4912 26404.0
 02 08 2016  18 56  -15.4821 26178.6   3441.9   7.4902 26403.9
 02 08 2016  18 57  -15.4819 26178.8   3442.3   7.4910 26404.1
 02 08 2016  18 58  -15.4819 26179.2   3443.1   7.4925 26404.6
 02 08 2016  18 59  -15.4823 26179.2   3442.7   7.4917 26404.6
 02 08 2016  19 00  -15.4823 26178.8   3442.2   7.4907 26404.1
 02 08 2016  19 01  -15.4819 26178.6   3442.3   7.4909 26403.9
 02 08 2016  19 02  -15.4818 26178.7   3442.3   7.4910 26404.0
 02 08 2016  19 03  -15.4820 26178.8   3442.8   7.4920 26404.2
 02 08 2016  19 04  -15.4821 26178.2   3442.2   7.4908 26403.6
 02 08 2016  19 05  -15.4820 26177.6   3442.0   7.4907 26402.9
 02 08 2016  19 06  -15.4818 26176.9   3442.3   7.4915 26402.3
 02 08 2016  19 07  -15.4816 26176.5   3442.4   7.4919 26401.9
 02 08 2016  19 08  -15.4818 26176.4   3442.8   7.4927 26401.9
 02 08 2016  19 09  -15.4817 26176.4   3442.8   7.4927 26401.9
 02 08 2016  19 10  -15.4816 26176.6   3443.2   7.4936 26402.1
 02 08 2016  19 11  -15.4818 26177.0   3443.8   7.4947 26402.5
 02 08 2016  19 12  -15.4818 26177.2   3444.2   7.4955 26402.8
 02 08 2016  19 13  -15.4821 26177.2   3443.8   7.4947 26402.7
 02 08 2016  19 14  -15.4822 26177.1   3444.0   7.4950 26402.6
 02 08 2016  19 15  -15.4822 26177.0   3444.4   7.4959 26402.7
 02 08 2016  19 16  -15.4820 26177.2   3444.2   7.4956 26402.8
 02 08 2016  19 17  -15.4826 26177.6   3444.3   7.4956 26403.2
 02 08 2016  19 18  -15.4829 26177.6   3444.5   7.4960 26403.2
 02 08 2016  19 19  -15.4837 26176.7   3444.0   7.4953 26402.3
 02 08 2016  19 20  -15.4836 26175.8   3443.1   7.4936 26401.3
 02 08 2016  19 21  -15.4837 26174.5   3442.9   7.4934 26399.9
 02 08 2016  19 22  -15.4842 26172.8   3442.4   7.4928 26398.3
 02 08 2016  19 23  -15.4839 26172.4   3442.7   7.4936 26397.8
 02 08 2016  19 24  -15.4838 26172.4   3443.2   7.4947 26398.0
 02 08 2016  19 25  -15.4826 26172.1   3444.4   7.4975 26397.8
 02 08 2016  19 26  -15.4814 26175.5   3446.5   7.5009 26401.5
 02 08 2016  19 27  -15.4823 26181.0   3448.8   7.5044 26407.2
 02 08 2016  19 28  -15.4805 26184.0   3449.7   7.5055 26410.3
 02 08 2016  19 29  -15.4804 26190.0   3451.5   7.5076 26416.4
 02 08 2016  19 30  -15.4826 26195.9   3452.0   7.5069 26422.3
 02 08 2016  19 31  -15.4843 26196.9   3449.1   7.5005 26423.0
 02 08 2016  19 32  -15.4860 26195.1   3446.0   7.4944 26420.8
 02 08 2016  19 33  -15.4886 26191.4   3442.0   7.4867 26416.6
 02 08 2016  19 34  -15.4876 26184.8   3438.1   7.4803 26409.5
 02 08 2016  19 35  -15.4861 26179.8   3437.4   7.4801 26404.5
 02 08 2016  19 36  -15.4841 26179.4   3439.5   7.4848 26404.4
 02 08 2016  19 37  -15.4830 26180.6   3441.7   7.4892 26405.8
 02 08 2016  19 38  -15.4826 26182.2   3443.3   7.4921 26407.6
 02 08 2016  19 39  -15.4841 26182.9   3443.1   7.4914 26408.3
 02 08 2016  19 40  -15.4844 26181.3   3442.0   7.4896 26406.6
 02 08 2016  19 41  -15.4845 26178.9   3440.8   7.4876 26404.0
 02 08 2016  19 42  -15.4832 26176.6   3440.1   7.4868 26401.7
 02 08 2016  19 43  -15.4819 26176.7   3441.3   7.4894 26401.9
 02 08 2016  19 44  -15.4809 26179.5   3443.7   7.4939 26405.0
 02 08 2016  19 45  -15.4820 26182.2   3444.7   7.4951 26407.8
 02 08 2016  19 46  -15.4828 26183.0   3443.8   7.4931 26408.5
 02 08 2016  19 47  -15.4840 26183.0   3443.0   7.4913 26408.4
 02 08 2016  19 48  -15.4839 26182.7   3442.3   7.4898 26408.0
 02 08 2016  19 49  -15.4847 26182.1   3441.6   7.4886 26407.3
 02 08 2016  19 50  -15.4857 26178.9   3439.1   7.4840 26403.8
 02 08 2016  19 51  -15.4850 26173.6   3436.9   7.4808 26398.3
 02 08 2016  19 52  -15.4840 26171.4   3437.5   7.4826 26396.2
 02 08 2016  19 53  -15.4833 26173.0   3439.7   7.4870 26398.0
 02 08 2016  19 54  -15.4829 26175.1   3441.3   7.4899 26400.4
 02 08 2016  19 55  -15.4829 26176.7   3442.1   7.4911 26402.0
 02 08 2016  19 56  -15.4835 26177.4   3442.1   7.4908 26402.8
 02 08 2016  19 57  -15.4834 26177.8   3442.0   7.4905 26403.1
 02 08 2016  19 58  -15.4837 26178.4   3441.9   7.4901 26403.7
 02 08 2016  19 59  -15.4836 26178.3   3441.5   7.4893 26403.5
 02 08 2016  20 00  -15.4835 26177.8   3441.1   7.4888 26403.0
 02 08 2016  20 01  -15.4839 26177.8   3441.0   7.4885 26402.9
 02 08 2016  20 02  -15.4840 26177.8   3440.8   7.4880 26402.9
 02 08 2016  20 03  -15.4844 26177.6   3440.7   7.4878 26402.8
 02 08 2016  20 04  -15.4846 26177.1   3440.2   7.4870 26402.2
 02 08 2016  20 05  -15.4846 26176.9   3440.1   7.4867 26402.0
 02 08 2016  20 06  -15.4844 26177.0   3440.3   7.4871 26402.1
 02 08 2016  20 07  -15.4842 26177.9   3440.9   7.4882 26403.0
 02 08 2016  20 08  -15.4843 26179.3   3441.4   7.4889 26404.6
 02 08 2016  20 09  -15.4848 26180.3   3441.5   7.4889 26405.5
 02 08 2016  20 10  -15.4850 26180.4   3441.5   7.4888 26405.7
 02 08 2016  20 11  -15.4853 26180.2   3440.7   7.4871 26405.3
 02 08 2016  20 12  -15.4849 26180.9   3440.5   7.4866 26406.0
 02 08 2016  20 13  -15.4855 26180.5   3439.9   7.4854 26405.5
 02 08 2016  20 14  -15.4851 26179.8   3439.4   7.4844 26404.7
 02 08 2016  20 15  -15.4852 26181.4   3441.0   7.4873 26406.5
 02 08 2016  20 16  -15.4857 26182.9   3441.0   7.4870 26408.1
 02 08 2016  20 17  -15.4864 26183.4   3440.4   7.4857 26408.4
 02 08 2016  20 18  -15.4873 26181.7   3439.0   7.4830 26406.6
 02 08 2016  20 19  -15.4875 26180.0   3437.6   7.4806 26404.8
 02 08 2016  20 20  -15.4872 26179.8   3438.3   7.4822 26404.7
 02 08 2016  20 21  -15.4865 26180.7   3439.3   7.4840 26405.7
 02 08 2016  20 22  -15.4867 26181.9   3439.8   7.4846 26406.9
 02 08 2016  20 23  -15.4867 26183.1   3440.5   7.4859 26408.2
 02 08 2016  20 24  -15.4876 26183.4   3440.1   7.4848 26408.4
 02 08 2016  20 25  -15.4878 26183.3   3439.4   7.4833 26408.2
 02 08 2016  20 26  -15.4878 26184.2   3440.1   7.4848 26409.2
 02 08 2016  20 27  -15.4887 26184.1   3439.2   7.4829 26409.0
 02 08 2016  20 28  -15.4896 26183.6   3439.2   7.4829 26408.5
 02 08 2016  20 29  -15.4903 26182.5   3438.0   7.4806 26407.3
 02 08 2016  20 30  -15.4906 26181.3   3437.6   7.4802 26406.0
 02 08 2016  20 31  -15.4897 26181.9   3438.7   7.4822 26406.7
 02 08 2016  20 32  -15.4895 26181.7   3438.6   7.4822 26406.6
 02 08 2016  20 33  -15.4890 26182.0   3439.6   7.4842 26407.0
 02 08 2016  20 34  -15.4881 26183.8   3440.6   7.4860 26408.9
 02 08 2016  20 35  -15.4880 26186.0   3441.9   7.4880 26411.3
 02 08 2016  20 36  -15.4886 26187.7   3442.1   7.4880 26412.9
 02 08 2016  20 37  -15.4894 26188.3   3441.1   7.4856 26413.4
 02 08 2016  20 38  -15.4897 26188.0   3440.7   7.4849 26413.1
 02 08 2016  20 39  -15.4900 26187.8   3439.8   7.4831 26412.7
 02 08 2016  20 40  -15.4901 26186.9   3439.2   7.4821 26411.8
 02 08 2016  20 41  -15.4899 26186.1   3438.8   7.4814 26410.9
 02 08 2016  20 42  -15.4891 26186.8   3439.7   7.4830 26411.7
 02 08 2016  20 43  -15.4891 26188.3   3440.5   7.4843 26413.4
 02 08 2016  20 44  -15.4897 26188.6   3440.1   7.4834 26413.6
 02 08 2016  20 45  -15.4902 26187.5   3438.9   7.4811 26412.3
 02 08 2016  20 46  -15.4911 26186.9   3438.6   7.4806 26411.7
 02 08 2016  20 47  -15.4921 26184.2   3436.9   7.4778 26408.8
 02 08 2016  20 48  -15.4920 26180.6   3435.6   7.4759 26405.1
 02 08 2016  20 49  -15.4909 26179.8   3436.5   7.4782 26404.4
 02 08 2016  20 50  -15.4865 26185.2   3441.3   7.4870 26410.3
 02 08 2016  20 51  -15.4838 26196.2   3447.8   7.4978 26422.1
 02 08 2016  20 52  -15.4820 26208.0   3452.4   7.5044 26434.5
 02 08 2016  20 53  -15.4830 26214.3   3451.8   7.5014 26440.5
 02 08 2016  20 54  -15.4856 26214.3   3448.5   7.4941 26440.1
 02 08 2016  20 55  -15.4873 26211.7   3444.5   7.4864 26437.0
 02 08 2016  20 56  -15.4885 26208.1   3441.1   7.4801 26433.1
 02 08 2016  20 57  -15.4895 26204.0   3438.2   7.4750 26428.6
 02 08 2016  20 58  -15.4902 26199.1   3435.4   7.4704 26423.3
 02 08 2016  20 59  -15.4905 26195.1   3434.0   7.4684 26419.2
 02 08 2016  21 00  -15.4902 26193.6   3434.4   7.4698 26417.8
 02 08 2016  21 01  -15.4909 26192.3   3434.5   7.4704 26416.5
 02 08 2016  21 02  -15.4912 26189.1   3433.9   7.4699 26413.2
 02 08 2016  21 03  -15.4917 26185.8   3433.0   7.4690 26409.9
 02 08 2016  21 04  -15.4920 26185.4   3434.0   7.4712 26409.6
 02 08 2016  21 05  -15.4933 26184.2   3434.1   7.4717 26408.4
 02 08 2016  21 06  -15.4950 26178.0   3430.6   7.4660 26401.8
 02 08 2016  21 07  -15.4955 26171.9   3429.5   7.4653 26395.7
 02 08 2016  21 08  -15.4953 26171.3   3431.2   7.4692 26395.2
 02 08 2016  21 09  -15.4952 26172.0   3433.3   7.4735 26396.3
 02 08 2016  21 10  -15.4949 26172.0   3434.4   7.4759 26396.3
 02 08 2016  21 11  -15.4955 26172.1   3434.9   7.4770 26396.6
 02 08 2016  21 12  -15.4964 26172.7   3435.5   7.4780 26397.2
 02 08 2016  21 13  -15.4969 26173.8   3435.9   7.4787 26398.4
 02 08 2016  21 14  -15.4971 26175.0   3436.2   7.4790 26399.6
 02 08 2016  21 15  -15.4969 26175.5   3436.3   7.4791 26400.1
 02 08 2016  21 16  -15.4967 26175.2   3435.9   7.4781 26399.7
 02 08 2016  21 17  -15.4969 26173.4   3434.8   7.4764 26397.8
 02 08 2016  21 18  -15.4967 26172.9   3434.7   7.4762 26397.3
 02 08 2016  21 19  -15.4968 26173.1   3435.0   7.4769 26397.6
 02 08 2016  21 20  -15.4967 26174.1   3435.5   7.4776 26398.6
 02 08 2016  21 21  -15.4958 26174.2   3435.3   7.4771 26398.7
 02 08 2016  21 22  -15.4960 26173.6   3435.0   7.4767 26398.0
 02 08 2016  21 23  -15.4963 26172.9   3434.4   7.4756 26397.3
 02 08 2016  21 24  -15.4962 26172.5   3434.3   7.4756 26396.9
 02 08 2016  21 25  -15.4960 26171.3   3433.8   7.4748 26395.6
 02 08 2016  21 26  -15.4961 26169.4   3433.0   7.4736 26393.7
 02 08 2016  21 27  -15.4965 26167.8   3432.7   7.4734 26391.9
 02 08 2016  21 28  -15.4970 26166.0   3432.2   7.4727 26390.2
 02 08 2016  21 29  -15.4972 26164.5   3432.1   7.4731 26388.7
 02 08 2016  21 30  -15.4978 26162.9   3432.3   7.4739 26387.1
 02 08 2016  21 31  -15.4985 26162.3   3432.6   7.4747 26386.5
 02 08 2016  21 32  -15.4988 26162.1   3433.2   7.4762 26386.4
 02 08 2016  21 33  -15.4991 26161.7   3433.6   7.4772 26386.0
 02 08 2016  21 34  -15.4991 26160.5   3433.3   7.4768 26384.8
 02 08 2016  21 35  -15.4993 26159.3   3433.3   7.4770 26383.6
 02 08 2016  21 36  -15.4997 26158.4   3433.4   7.4775 26382.8
 02 08 2016  21 37  -15.5004 26158.3   3433.9   7.4787 26382.7
 02 08 2016  21 38  -15.5011 26158.5   3434.4   7.4796 26383.0
 02 08 2016  21 39  -15.5012 26158.3   3434.7   7.4804 26382.8
 02 08 2016  21 40  -15.5014 26157.7   3434.6   7.4804 26382.2
 02 08 2016  21 41  -15.5019 26156.8   3434.5   7.4804 26381.3
 02 08 2016  21 42  -15.5025 26156.5   3434.7   7.4809 26381.1
 02 08 2016  21 43  -15.5030 26156.2   3434.8   7.4811 26380.8
 02 08 2016  21 44  -15.5028 26154.3   3434.0   7.4801 26378.8
 02 08 2016  21 45  -15.5028 26153.0   3433.9   7.4802 26377.5
 02 08 2016  21 46  -15.5026 26153.4   3434.6   7.4815 26377.9
 02 08 2016  21 47  -15.5027 26153.3   3434.5   7.4813 26377.8
 02 08 2016  21 48  -15.5027 26152.3   3434.8   7.4822 26376.9
 02 08 2016  21 49  -15.5030 26151.7   3434.7   7.4822 26376.3
 02 08 2016  21 50  -15.5034 26151.1   3434.6   7.4823 26375.6
 02 08 2016  21 51  -15.5038 26149.6   3434.2   7.4817 26374.2
 02 08 2016  21 52  -15.5041 26148.2   3433.9   7.4816 26372.7
 02 08 2016  21 53  -15.5054 26147.3   3433.9   7.4818 26371.8
 02 08 2016  21 54  -15.5068 26144.6   3433.0   7.4807 26369.0
 02 08 2016  21 55  -15.5075 26142.7   3432.5   7.4800 26367.1
 02 08 2016  21 56  -15.5087 26142.1   3433.4   7.4822 26366.6
 02 08 2016  21 57  -15.5091 26141.9   3434.4   7.4843 26366.6
 02 08 2016  21 58  -15.5096 26141.8   3434.7   7.4851 26366.4
 02 08 2016  21 59  -15.5096 26141.4   3435.3   7.4864 26366.2
 02 08 2016  22 00  -15.5097 26141.0   3435.4   7.4869 26365.8
 02 08 2016  22 01  -15.5098 26140.4   3435.7   7.4877 26365.3
 02 08 2016  22 02  -15.5096 26140.1   3435.7   7.4877 26364.9
 02 08 2016  22 03  -15.5097 26139.4   3435.8   7.4881 26364.3
 02 08 2016  22 04  -15.5097 26139.5   3436.5   7.4896 26364.4
 02 08 2016  22 05  -15.5099 26139.9   3436.8   7.4901 26364.9
 02 08 2016  22 06  -15.5105 26140.0   3436.8   7.4901 26364.9
 02 08 2016  22 07  -15.5107 26140.1   3436.8   7.4901 26365.1
 02 08 2016  22 08  -15.5112 26139.9   3436.8   7.4902 26364.9
 02 08 2016  22 09  -15.5114 26139.9   3437.2   7.4910 26364.9
 02 08 2016  22 10  -15.5113 26140.1   3437.5   7.4915 26365.2
 02 08 2016  22 11  -15.5107 26140.0   3437.4   7.4913 26365.0
 02 08 2016  22 12  -15.5110 26139.1   3436.9   7.4905 26364.1
 02 08 2016  22 13  -15.5106 26138.6   3436.8   7.4905 26363.6
 02 08 2016  22 14  -15.5106 26137.6   3436.4   7.4899 26362.6
 02 08 2016  22 15  -15.5106 26136.6   3436.0   7.4893 26361.5
 02 08 2016  22 16  -15.5103 26135.5   3435.7   7.4890 26360.4
 02 08 2016  22 17  -15.5102 26133.5   3434.8   7.4877 26358.3
 02 08 2016  22 18  -15.5099 26132.4   3434.6   7.4874 26357.1
 02 08 2016  22 19  -15.5098 26130.6   3434.2   7.4872 26355.3
 02 08 2016  22 20  -15.5096 26129.6   3434.1   7.4873 26354.3
 02 08 2016  22 21  -15.5101 26128.6   3434.2   7.4877 26353.4
 02 08 2016  22 22  -15.5093 26129.3   3435.1   7.4894 26354.2
 02 08 2016  22 23  -15.5098 26129.3   3435.2   7.4897 26354.1
 02 08 2016  22 24  -15.5100 26129.6   3435.7   7.4907 26354.5
 02 08 2016  22 25  -15.5107 26129.4   3435.5   7.4902 26354.2
 02 08 2016  22 26  -15.5116 26128.9   3435.6   7.4906 26353.8
 02 08 2016  22 27  -15.5125 26128.2   3435.6   7.4909 26353.1
 02 08 2016  22 28  -15.5143 26128.0   3435.2   7.4900 26352.9
 02 08 2016  22 29  -15.5149 26128.6   3436.2   7.4919 26353.6
 02 08 2016  22 30  -15.5152 26128.7   3436.3   7.4922 26353.7
 02 08 2016  22 31  -15.5154 26128.2   3436.3   7.4924 26353.2
 02 08 2016  22 32  -15.5166 26127.6   3435.8   7.4915 26352.6
 02 08 2016  22 33  -15.5174 26126.6   3435.8   7.4918 26351.6
 02 08 2016  22 34  -15.5180 26125.9   3435.3   7.4909 26350.8
 02 08 2016  22 35  -15.5180 26125.1   3434.9   7.4903 26350.0
 02 08 2016  22 36  -15.5190 26123.5   3434.2   7.4892 26348.2
 02 08 2016  22 37  -15.5192 26122.8   3434.9   7.4909 26347.7
 02 08 2016  22 38  -15.5191 26123.9   3435.7   7.4923 26348.8
 02 08 2016  22 39  -15.5195 26124.7   3437.0   7.4949 26349.8
 02 08 2016  22 40  -15.5208 26124.5   3436.8   7.4945 26349.6
 02 08 2016  22 41  -15.5223 26122.2   3435.1   7.4916 26347.1
 02 08 2016  22 42  -15.5235 26121.2   3435.2   7.4920 26346.1
 02 08 2016  22 43  -15.5242 26120.7   3435.2   7.4921 26345.6
 02 08 2016  22 44  -15.5238 26120.6   3436.1   7.4941 26345.6
 02 08 2016  22 45  -15.5215 26121.7   3437.2   7.4962 26346.8
 02 08 2016  22 46  -15.5194 26122.7   3438.2   7.4980 26348.0
 02 08 2016  22 47  -15.5173 26122.9   3438.1   7.4978 26348.1
 02 08 2016  22 48  -15.5161 26122.6   3437.8   7.4971 26347.9
 02 08 2016  22 49  -15.5158 26122.6   3437.8   7.4972 26347.8
 02 08 2016  22 50  -15.5156 26122.1   3437.5   7.4967 26347.3
 02 08 2016  22 51  -15.5151 26120.5   3436.9   7.4959 26345.6
 02 08 2016  22 52  -15.5150 26118.5   3436.1   7.4947 26343.5
 02 08 2016  22 53  -15.5154 26117.7   3436.3   7.4952 26342.8
 02 08 2016  22 54  -15.5156 26116.7   3436.1   7.4953 26341.8
 02 08 2016  22 55  -15.5160 26115.8   3436.0   7.4951 26340.9
 02 08 2016  22 56  -15.5158 26115.4   3436.1   7.4956 26340.4
 02 08 2016  22 57  -15.5156 26114.9   3436.3   7.4961 26340.0
 02 08 2016  22 58  -15.5162 26114.9   3436.7   7.4969 26340.1
 02 08 2016  22 59  -15.5165 26114.1   3436.8   7.4976 26339.3
 02 08 2016  23 00  -15.5169 26112.6   3435.9   7.4960 26337.7
 02 08 2016  23 01  -15.5181 26111.5   3435.5   7.4955 26336.5
 02 08 2016  23 02  -15.5191 26110.9   3435.7   7.4961 26335.9
 02 08 2016  23 03  -15.5206 26109.9   3436.3   7.4976 26335.1
 02 08 2016  23 04  -15.5218 26108.6   3436.2   7.4976 26333.8
 02 08 2016  23 05  -15.5229 26107.4   3436.2   7.4981 26332.6
 02 08 2016  23 06  -15.5239 26106.8   3436.0   7.4977 26331.9
 02 08 2016  23 07  -15.5242 26105.8   3436.5   7.4991 26331.0
 02 08 2016  23 08  -15.5245 26104.7   3436.6   7.4996 26330.0
 02 08 2016  23 09  -15.5239 26103.4   3436.1   7.4989 26328.6
 02 08 2016  23 10  -15.5226 26102.1   3436.1   7.4993 26327.3
 02 08 2016  23 11  -15.5222 26100.8   3435.8   7.4991 26326.0
 02 08 2016  23 12  -15.5211 26100.3   3436.3   7.5003 26325.5
 02 08 2016  23 13  -15.5203 26099.6   3436.0   7.4998 26324.8
 02 08 2016  23 14  -15.5196 26099.1   3437.2   7.5026 26324.4
 02 08 2016  23 15  -15.5188 26098.8   3436.6   7.5013 26324.1
 02 08 2016  23 16  -15.5179 26098.6   3437.3   7.5030 26324.0
 02 08 2016  23 17  -15.5171 26098.4   3437.1   7.5025 26323.8
 02 08 2016  23 18  -15.5154 26098.4   3438.2   7.5048 26323.9
 02 08 2016  23 19  -15.5136 26098.5   3438.6   7.5057 26324.0
 02 08 2016  23 20  -15.5123 26098.2   3438.0   7.5045 26323.6
 02 08 2016  23 21  -15.5110 26098.2   3439.0   7.5066 26323.8
 02 08 2016  23 22  -15.5103 26097.9   3438.9   7.5065 26323.5
 02 08 2016  23 23  -15.5104 26098.3   3438.8   7.5062 26323.9
 02 08 2016  23 24  -15.5100 26099.3   3439.1   7.5065 26324.9
 02 08 2016  23 25  -15.5093 26101.3   3440.7   7.5094 26327.1
 02 08 2016  23 26  -15.5081 26104.2   3442.0   7.5115 26330.2
 02 08 2016  23 27  -15.5079 26106.9   3443.4   7.5137 26333.0
 02 08 2016  23 28  -15.5076 26109.2   3444.7   7.5159 26335.5
 02 08 2016  23 29  -15.5076 26110.5   3443.8   7.5136 26336.6
 02 08 2016  23 30  -15.5074 26110.6   3443.3   7.5124 26336.7
 02 08 2016  23 31  -15.5086 26106.7   3440.4   7.5073 26332.4
 02 08 2016  23 32  -15.5107 26102.8   3438.3   7.5039 26328.2
 02 08 2016  23 33  -15.5113 26102.4   3437.9   7.5032 26327.8
 02 08 2016  23 34  -15.5094 26105.4   3441.3   7.5096 26331.2
 02 08 2016  23 35  -15.5077 26105.5   3440.8   7.5084 26331.3
 02 08 2016  23 36  -15.5069 26106.0   3440.9   7.5086 26331.8
 02 08 2016  23 37  -15.5054 26108.0   3442.9   7.5123 26334.1
 02 08 2016  23 38  -15.5037 26110.6   3443.5   7.5129 26336.7
 02 08 2016  23 39  -15.5021 26112.0   3443.6   7.5127 26338.1
 02 08 2016  23 40  -15.5012 26112.9   3444.1   7.5136 26339.1
 02 08 2016  23 41  -15.5014 26112.7   3443.1   7.5115 26338.8
 02 08 2016  23 42  -15.5024 26112.6   3442.2   7.5094 26338.5
 02 08 2016  23 43  -15.5036 26111.8   3442.1   7.5095 26337.7
 02 08 2016  23 44  -15.5054 26110.6   3440.5   7.5063 26336.3
 02 08 2016  23 45  -15.5067 26109.4   3439.9   7.5056 26335.0
 02 08 2016  23 46  -15.5082 26106.4   3439.1   7.5046 26331.9
 02 08 2016  23 47  -15.5095 26105.2   3438.5   7.5037 26330.7
 02 08 2016  23 48  -15.5082 26106.8   3439.9   7.5061 26332.4
 02 08 2016  23 49  -15.5045 26108.1   3441.4   7.5090 26334.0
 02 08 2016  23 50  -15.5014 26108.3   3442.0   7.5104 26334.2
 02 08 2016  23 51  -15.4998 26108.2   3442.0   7.5103 26334.1
 02 08 2016  23 52  -15.4991 26107.2   3440.9   7.5082 26333.0
 02 08 2016  23 53  -15.4988 26106.2   3440.5   7.5077 26331.9
 02 08 2016  23 54  -15.4980 26106.4   3440.5   7.5077 26332.1
 02 08 2016  23 55  -15.4963 26106.7   3441.5   7.5096 26332.5
 02 08 2016  23 56  -15.4951 26106.6   3441.2   7.5090 26332.4
 02 08 2016  23 57  -15.4937 26107.1   3441.1   7.5087 26332.9
 02 08 2016  23 58  -15.4924 26107.4   3440.9   7.5082 26333.1
 02 08 2016  23 59  -15.4915 26107.3   3441.3   7.5091 26333.1
