Manaus - AM                    UNIVAP-03  <282> 1 Min. Reported data

 DD MM YYYY  HH MM   D(Deg)  H(nT)   Z(nT)   I(Deg)   F(nT)

 08 10 2016  00 00  -15.5109 26132.4   3399.6   7.4121 26352.6
 08 10 2016  00 01  -15.5114 26132.2   3398.9   7.4105 26352.3
 08 10 2016  00 02  -15.5112 26132.3   3398.3   7.4093 26352.3
 08 10 2016  00 03  -15.5099 26132.7   3397.6   7.4077 26352.7
 08 10 2016  00 04  -15.5098 26132.5   3399.1   7.4109 26352.6
 08 10 2016  00 05  -15.5102 26132.6   3398.3   7.4093 26352.6
 08 10 2016  00 06  -15.5094 26132.7   3398.6   7.4099 26352.8
 08 10 2016  00 07  -15.5091 26132.7   3399.1   7.4110 26352.8
 08 10 2016  00 08  -15.5101 26132.5   3399.3   7.4113 26352.7
 08 10 2016  00 09  -15.5096 26132.8   3398.5   7.4096 26352.9
 08 10 2016  00 10  -15.5095 26132.6   3398.9   7.4105 26352.7
 08 10 2016  00 11  -15.5090 26132.7   3398.3   7.4092 26352.8
 08 10 2016  00 12  -15.5091 26132.5   3400.3   7.4134 26352.8
 08 10 2016  00 13  -15.5092 26133.0   3398.2   7.4089 26353.1
 08 10 2016  00 14  -15.5092 26133.1   3399.7   7.4120 26353.3
 08 10 2016  00 15  -15.5099 26133.2   3399.6   7.4119 26353.4
 08 10 2016  00 16  -15.5089 26133.5   3400.9   7.4145 26353.8
 08 10 2016  00 17  -15.5088 26133.7   3400.6   7.4140 26354.0
 08 10 2016  00 18  -15.5080 26134.1   3399.4   7.4111 26354.3
 08 10 2016  00 19  -15.5093 26133.7   3400.6   7.4139 26354.1
 08 10 2016  00 20  -15.5096 26134.1   3398.9   7.4102 26354.2
 08 10 2016  00 21  -15.5094 26134.0   3398.6   7.4094 26354.1
 08 10 2016  00 22  -15.5089 26134.3   3398.1   7.4083 26354.3
 08 10 2016  00 23  -15.5096 26134.5   3397.4   7.4067 26354.4
 08 10 2016  00 24  -15.5094 26134.5   3398.5   7.4092 26354.5
 08 10 2016  00 25  -15.5090 26134.2   3399.6   7.4115 26354.4
 08 10 2016  00 26  -15.5078 26134.7   3399.4   7.4111 26354.9
 08 10 2016  00 27  -15.5087 26134.7   3398.9   7.4099 26354.8
 08 10 2016  00 28  -15.5085 26134.9   3399.5   7.4112 26355.1
 08 10 2016  00 29  -15.5095 26134.5   3398.5   7.4091 26354.6
 08 10 2016  00 30  -15.5084 26134.6   3399.9   7.4120 26354.8
 08 10 2016  00 31  -15.5090 26134.6   3398.4   7.4089 26354.6
 08 10 2016  00 32  -15.5088 26134.8   3398.8   7.4096 26354.9
 08 10 2016  00 33  -15.5082 26135.0   3399.5   7.4111 26355.1
 08 10 2016  00 34  -15.5084 26135.0   3399.2   7.4105 26355.1
 08 10 2016  00 35  -15.5090 26134.6   3400.4   7.4132 26354.9
 08 10 2016  00 36  -15.5094 26134.8   3398.6   7.4092 26354.8
 08 10 2016  00 37  -15.5079 26135.2   3398.5   7.4089 26355.3
 08 10 2016  00 38  -15.5074 26135.2   3399.5   7.4111 26355.4
 08 10 2016  00 39  -15.5080 26135.3   3399.6   7.4112 26355.5
 08 10 2016  00 40  -15.5076 26135.5   3400.3   7.4126 26355.8
 08 10 2016  00 41  -15.5082 26135.4   3398.7   7.4092 26355.4
 08 10 2016  00 42  -15.5093 26134.9   3399.0   7.4101 26355.0
 08 10 2016  00 43  -15.5098 26134.6   3398.6   7.4092 26354.6
 08 10 2016  00 44  -15.5096 26134.2   3398.2   7.4085 26354.2
 08 10 2016  00 45  -15.5093 26134.1   3399.2   7.4107 26354.3
 08 10 2016  00 46  -15.5093 26134.4   3398.8   7.4098 26354.5
 08 10 2016  00 47  -15.5099 26134.4   3398.8   7.4098 26354.5
 08 10 2016  00 48  -15.5096 26134.9   3399.0   7.4100 26355.0
 08 10 2016  00 49  -15.5100 26135.0   3399.0   7.4100 26355.1
 08 10 2016  00 50  -15.5110 26134.5   3399.4   7.4111 26354.7
 08 10 2016  00 51  -15.5107 26134.3   3398.8   7.4097 26354.4
 08 10 2016  00 52  -15.5112 26133.7   3399.3   7.4110 26353.8
 08 10 2016  00 53  -15.5104 26134.0   3398.1   7.4084 26354.0
 08 10 2016  00 54  -15.5098 26134.1   3398.1   7.4082 26354.1
 08 10 2016  00 55  -15.5105 26133.4   3398.6   7.4096 26353.5
 08 10 2016  00 56  -15.5094 26133.6   3397.7   7.4077 26353.5
 08 10 2016  00 57  -15.5089 26133.3   3400.9   7.4147 26353.7
 08 10 2016  00 58  -15.5099 26133.4   3398.3   7.4089 26353.5
 08 10 2016  00 59  -15.5098 26133.2   3399.5   7.4115 26353.4
 08 10 2016  01 00  -15.5107 26132.8   3398.7   7.4100 26352.9
 08 10 2016  01 01  -15.5093 26132.6   3399.5   7.4117 26352.8
 08 10 2016  01 02  -15.5089 26132.8   3398.7   7.4099 26352.9
 08 10 2016  01 03  -15.5091 26132.4   3398.7   7.4101 26352.5
 08 10 2016  01 04  -15.5089 26131.9   3400.4   7.4138 26352.2
 08 10 2016  01 05  -15.5091 26131.8   3398.7   7.4103 26351.9
 08 10 2016  01 06  -15.5090 26131.5   3397.6   7.4079 26351.4
 08 10 2016  01 07  -15.5079 26131.1   3399.2   7.4117 26351.3
 08 10 2016  01 08  -15.5099 26130.5   3397.8   7.4086 26350.5
 08 10 2016  01 09  -15.5103 26130.0   3398.8   7.4109 26350.1
 08 10 2016  01 10  -15.5099 26129.5   3399.6   7.4128 26349.8
 08 10 2016  01 11  -15.5079 26129.7   3399.9   7.4134 26350.0
 08 10 2016  01 12  -15.5087 26129.4   3398.8   7.4113 26349.5
 08 10 2016  01 13  -15.5096 26129.1   3398.9   7.4114 26349.2
 08 10 2016  01 14  -15.5092 26129.2   3397.8   7.4091 26349.2
 08 10 2016  01 15  -15.5093 26128.7   3398.8   7.4114 26348.8
 08 10 2016  01 16  -15.5097 26128.4   3398.6   7.4111 26348.5
 08 10 2016  01 17  -15.5095 26128.0   3398.7   7.4113 26348.1
 08 10 2016  01 18  -15.5097 26127.3   3398.5   7.4110 26347.4
 08 10 2016  01 19  -15.5101 26126.6   3398.3   7.4108 26346.7
 08 10 2016  01 20  -15.5100 26126.2   3397.9   7.4101 26346.2
 08 10 2016  01 21  -15.5103 26125.6   3398.3   7.4112 26345.7
 08 10 2016  01 22  -15.5104 26125.1   3398.0   7.4106 26345.1
 08 10 2016  01 23  -15.5106 26124.5   3398.0   7.4108 26344.6
 08 10 2016  01 24  -15.5108 26124.0   3398.4   7.4118 26344.1
 08 10 2016  01 25  -15.5120 26123.7   3397.2   7.4094 26343.6
 08 10 2016  01 26  -15.5119 26123.6   3397.2   7.4094 26343.6
 08 10 2016  01 27  -15.5122 26123.2   3398.1   7.4114 26343.3
 08 10 2016  01 28  -15.5124 26122.9   3398.6   7.4125 26343.0
 08 10 2016  01 29  -15.5123 26122.9   3398.1   7.4114 26342.9
 08 10 2016  01 30  -15.5125 26122.6   3398.6   7.4126 26342.8
 08 10 2016  01 31  -15.5122 26122.5   3399.8   7.4152 26342.8
 08 10 2016  01 32  -15.5132 26122.2   3399.2   7.4140 26342.5
 08 10 2016  01 33  -15.5137 26122.4   3397.0   7.4094 26342.4
 08 10 2016  01 34  -15.5143 26121.9   3398.0   7.4115 26342.0
 08 10 2016  01 35  -15.5144 26121.8   3397.8   7.4111 26341.8
 08 10 2016  01 36  -15.5135 26121.7   3399.2   7.4141 26341.9
 08 10 2016  01 37  -15.5134 26122.0   3397.3   7.4099 26342.0
 08 10 2016  01 38  -15.5150 26121.7   3397.6   7.4108 26341.7
 08 10 2016  01 39  -15.5140 26121.8   3400.1   7.4161 26342.1
 08 10 2016  01 40  -15.5133 26122.3   3398.6   7.4127 26342.5
 08 10 2016  01 41  -15.5134 26122.4   3398.3   7.4121 26342.5
 08 10 2016  01 42  -15.5142 26122.3   3397.6   7.4107 26342.3
 08 10 2016  01 43  -15.5132 26122.4   3399.2   7.4141 26342.6
 08 10 2016  01 44  -15.5120 26122.7   3399.6   7.4147 26343.0
 08 10 2016  01 45  -15.5128 26122.3   3398.9   7.4134 26342.5
 08 10 2016  01 46  -15.5120 26122.1   3399.2   7.4141 26342.3
 08 10 2016  01 47  -15.5121 26121.9   3398.2   7.4119 26342.0
 08 10 2016  01 48  -15.5117 26121.8   3398.7   7.4130 26342.0
 08 10 2016  01 49  -15.5117 26122.4   3398.9   7.4135 26342.6
 08 10 2016  01 50  -15.5112 26123.0   3399.4   7.4144 26343.2
 08 10 2016  01 51  -15.5115 26123.1   3399.2   7.4138 26343.4
 08 10 2016  01 52  -15.5112 26123.3   3399.4   7.4141 26343.6
 08 10 2016  01 53  -15.5111 26123.3   3399.7   7.4149 26343.6
 08 10 2016  01 54  -15.5107 26123.2   3400.0   7.4154 26343.5
 08 10 2016  01 55  -15.5124 26122.8   3397.1   7.4093 26342.8
 08 10 2016  01 56  -15.5104 26122.6   3398.9   7.4134 26342.8
 08 10 2016  01 57  -15.5114 26121.9   3398.4   7.4125 26342.0
 08 10 2016  01 58  -15.5120 26121.5   3397.6   7.4109 26341.6
 08 10 2016  01 59  -15.5117 26121.1   3398.1   7.4120 26341.2
 08 10 2016  02 00  -15.5119 26120.7   3397.6   7.4110 26340.7
 08 10 2016  02 01  -15.5112 26120.6   3398.4   7.4128 26340.7
 08 10 2016  02 02  -15.5119 26120.7   3397.8   7.4114 26340.8
 08 10 2016  02 03  -15.5115 26120.9   3398.4   7.4127 26341.1
 08 10 2016  02 04  -15.5122 26121.0   3398.7   7.4133 26341.2
 08 10 2016  02 05  -15.5123 26120.9   3398.6   7.4132 26341.0
 08 10 2016  02 06  -15.5127 26120.6   3398.4   7.4128 26340.8
 08 10 2016  02 07  -15.5116 26120.9   3398.7   7.4134 26341.1
 08 10 2016  02 08  -15.5124 26120.6   3398.5   7.4131 26340.8
 08 10 2016  02 09  -15.5128 26120.6   3398.7   7.4135 26340.8
 08 10 2016  02 10  -15.5131 26120.7   3398.4   7.4128 26340.9
 08 10 2016  02 11  -15.5133 26120.8   3398.4   7.4128 26341.0
 08 10 2016  02 12  -15.5132 26120.5   3398.7   7.4134 26340.7
 08 10 2016  02 13  -15.5124 26120.7   3397.7   7.4113 26340.8
 08 10 2016  02 14  -15.5134 26120.3   3398.0   7.4121 26340.5
 08 10 2016  02 15  -15.5119 26120.7   3398.3   7.4125 26340.8
 08 10 2016  02 16  -15.5122 26120.4   3399.8   7.4159 26340.7
 08 10 2016  02 17  -15.5124 26120.9   3398.1   7.4121 26341.0
 08 10 2016  02 18  -15.5128 26121.0   3397.9   7.4115 26341.1
 08 10 2016  02 19  -15.5131 26121.2   3397.7   7.4111 26341.2
 08 10 2016  02 20  -15.5143 26121.1   3398.1   7.4121 26341.2
 08 10 2016  02 21  -15.5122 26121.7   3399.3   7.4144 26341.9
 08 10 2016  02 22  -15.5130 26121.6   3399.2   7.4142 26341.8
 08 10 2016  02 23  -15.5131 26121.6   3398.7   7.4132 26341.8
 08 10 2016  02 24  -15.5143 26121.6   3397.3   7.4102 26341.6
 08 10 2016  02 25  -15.5139 26121.3   3398.7   7.4132 26341.4
 08 10 2016  02 26  -15.5127 26121.3   3399.2   7.4143 26341.6
 08 10 2016  02 27  -15.5135 26121.2   3399.0   7.4139 26341.4
 08 10 2016  02 28  -15.5132 26121.0   3399.4   7.4148 26341.3
 08 10 2016  02 29  -15.5136 26121.0   3399.0   7.4140 26341.2
 08 10 2016  02 30  -15.5139 26121.0   3398.7   7.4133 26341.1
 08 10 2016  02 31  -15.5145 26121.0   3398.3   7.4125 26341.1
 08 10 2016  02 32  -15.5143 26121.0   3398.9   7.4138 26341.2
 08 10 2016  02 33  -15.5143 26121.5   3399.3   7.4144 26341.7
 08 10 2016  02 34  -15.5144 26122.2   3399.2   7.4142 26342.4
 08 10 2016  02 35  -15.5145 26122.5   3399.4   7.4144 26342.8
 08 10 2016  02 36  -15.5147 26122.7   3399.0   7.4135 26342.9
 08 10 2016  02 37  -15.5146 26122.6   3399.9   7.4154 26342.9
 08 10 2016  02 38  -15.5139 26122.9   3399.1   7.4137 26343.1
 08 10 2016  02 39  -15.5146 26122.4   3399.2   7.4139 26342.6
 08 10 2016  02 40  -15.5156 26122.3   3397.9   7.4113 26342.3
 08 10 2016  02 41  -15.5140 26122.6   3399.0   7.4134 26342.8
 08 10 2016  02 42  -15.5149 26122.5   3399.5   7.4145 26342.8
 08 10 2016  02 43  -15.5150 26122.7   3399.3   7.4141 26343.0
 08 10 2016  02 44  -15.5130 26123.6   3398.9   7.4130 26343.8
 08 10 2016  02 45  -15.5141 26123.3   3398.5   7.4121 26343.5
 08 10 2016  02 46  -15.5145 26123.2   3398.4   7.4120 26343.3
 08 10 2016  02 47  -15.5138 26123.3   3398.7   7.4126 26343.5
 08 10 2016  02 48  -15.5141 26123.2   3398.4   7.4120 26343.3
 08 10 2016  02 49  -15.5140 26123.2   3398.6   7.4126 26343.3
 08 10 2016  02 50  -15.5138 26123.1   3398.9   7.4131 26343.3
 08 10 2016  02 51  -15.5142 26122.7   3398.5   7.4123 26342.9
 08 10 2016  02 52  -15.5144 26122.7   3398.1   7.4115 26342.8
 08 10 2016  02 53  -15.5143 26122.6   3398.3   7.4121 26342.7
 08 10 2016  02 54  -15.5143 26122.4   3398.5   7.4124 26342.6
 08 10 2016  02 55  -15.5149 26122.3   3397.9   7.4113 26342.4
 08 10 2016  02 56  -15.5155 26121.9   3399.1   7.4140 26342.1
 08 10 2016  02 57  -15.5160 26121.9   3397.5   7.4105 26342.0
 08 10 2016  02 58  -15.5147 26122.0   3397.9   7.4113 26342.0
 08 10 2016  02 59  -15.5140 26121.8   3398.9   7.4135 26342.0
 08 10 2016  03 00  -15.5153 26121.2   3398.4   7.4126 26341.4
 08 10 2016  03 01  -15.5149 26121.5   3397.1   7.4097 26341.4
 08 10 2016  03 02  -15.5153 26121.1   3398.1   7.4121 26341.2
 08 10 2016  03 03  -15.5157 26121.0   3398.0   7.4118 26341.1
 08 10 2016  03 04  -15.5160 26121.0   3397.7   7.4112 26341.1
 08 10 2016  03 05  -15.5159 26121.0   3398.2   7.4123 26341.2
 08 10 2016  03 06  -15.5168 26120.9   3398.2   7.4122 26341.0
 08 10 2016  03 07  -15.5175 26120.9   3397.8   7.4113 26341.0
 08 10 2016  03 08  -15.5189 26120.8   3397.6   7.4111 26340.8
 08 10 2016  03 09  -15.5175 26121.2   3399.0   7.4138 26341.5
 08 10 2016  03 10  -15.5176 26121.6   3398.7   7.4131 26341.8
 08 10 2016  03 11  -15.5175 26122.0   3398.7   7.4130 26342.1
 08 10 2016  03 12  -15.5189 26121.9   3398.3   7.4122 26342.0
 08 10 2016  03 13  -15.5178 26122.5   3398.3   7.4120 26342.6
 08 10 2016  03 14  -15.5170 26122.7   3401.1   7.4180 26343.2
 08 10 2016  03 15  -15.5170 26123.1   3400.1   7.4157 26343.5
 08 10 2016  03 16  -15.5170 26123.6   3399.5   7.4144 26343.9
 08 10 2016  03 17  -15.5169 26124.0   3399.6   7.4145 26344.2
 08 10 2016  03 18  -15.5168 26124.2   3399.3   7.4137 26344.4
 08 10 2016  03 19  -15.5158 26124.3   3400.0   7.4152 26344.7
 08 10 2016  03 20  -15.5167 26124.1   3398.9   7.4129 26344.3
 08 10 2016  03 21  -15.5163 26123.8   3400.2   7.4157 26344.2
 08 10 2016  03 22  -15.5163 26123.7   3399.2   7.4137 26344.0
 08 10 2016  03 23  -15.5182 26123.6   3397.3   7.4095 26343.6
 08 10 2016  03 24  -15.5164 26123.8   3399.5   7.4142 26344.1
 08 10 2016  03 25  -15.5171 26123.8   3399.8   7.4150 26344.1
 08 10 2016  03 26  -15.5171 26124.1   3399.0   7.4131 26344.3
 08 10 2016  03 27  -15.5176 26124.1   3399.7   7.4146 26344.4
 08 10 2016  03 28  -15.5183 26124.2   3399.4   7.4140 26344.5
 08 10 2016  03 29  -15.5180 26124.6   3399.2   7.4135 26344.8
 08 10 2016  03 30  -15.5181 26124.9   3399.6   7.4142 26345.2
 08 10 2016  03 31  -15.5184 26125.1   3399.1   7.4129 26345.3
 08 10 2016  03 32  -15.5177 26125.3   3400.5   7.4160 26345.6
 08 10 2016  03 33  -15.5173 26125.8   3398.8   7.4121 26346.0
 08 10 2016  03 34  -15.5179 26125.3   3399.7   7.4142 26345.6
 08 10 2016  03 35  -15.5176 26126.0   3398.4   7.4112 26346.1
 08 10 2016  03 36  -15.5167 26125.7   3400.8   7.4166 26346.1
 08 10 2016  03 37  -15.5181 26125.9   3398.5   7.4114 26346.0
 08 10 2016  03 38  -15.5187 26125.5   3399.4   7.4137 26345.7
 08 10 2016  03 39  -15.5163 26126.0   3401.2   7.4174 26346.5
 08 10 2016  03 40  -15.5157 26126.2   3401.4   7.4177 26346.7
 08 10 2016  03 41  -15.5173 26126.5   3399.2   7.4128 26346.7
 08 10 2016  03 42  -15.5168 26126.9   3400.2   7.4148 26347.2
 08 10 2016  03 43  -15.5176 26126.8   3400.6   7.4157 26347.1
 08 10 2016  03 44  -15.5175 26126.9   3399.0   7.4122 26347.1
 08 10 2016  03 45  -15.5173 26127.1   3398.2   7.4105 26347.1
 08 10 2016  03 46  -15.5161 26126.8   3400.9   7.4164 26347.2
 08 10 2016  03 47  -15.5153 26127.1   3400.6   7.4156 26347.5
 08 10 2016  03 48  -15.5168 26126.5   3400.0   7.4145 26346.8
 08 10 2016  03 49  -15.5163 26126.9   3398.7   7.4118 26347.0
 08 10 2016  03 50  -15.5177 26126.2   3398.5   7.4114 26346.3
 08 10 2016  03 51  -15.5177 26125.9   3398.5   7.4116 26346.0
 08 10 2016  03 52  -15.5180 26125.5   3398.5   7.4116 26345.6
 08 10 2016  03 53  -15.5171 26125.7   3397.7   7.4099 26345.7
 08 10 2016  03 54  -15.5172 26125.2   3398.8   7.4124 26345.4
 08 10 2016  03 55  -15.5178 26124.6   3399.7   7.4144 26344.9
 08 10 2016  03 56  -15.5182 26124.3   3398.6   7.4121 26344.5
 08 10 2016  03 57  -15.5187 26124.0   3399.8   7.4149 26344.3
 08 10 2016  03 58  -15.5190 26124.2   3397.5   7.4098 26344.2
 08 10 2016  03 59  -15.5185 26124.1   3397.9   7.4106 26344.1
 08 10 2016  04 00  -15.5191 26123.6   3398.4   7.4120 26343.7
 08 10 2016  04 01  -15.5177 26123.5   3399.9   7.4152 26343.8
 08 10 2016  04 02  -15.5176 26123.3   3399.7   7.4148 26343.6
 08 10 2016  04 03  -15.5187 26122.7   3399.9   7.4153 26343.0
 08 10 2016  04 04  -15.5196 26122.3   3399.3   7.4142 26342.5
 08 10 2016  04 05  -15.5198 26122.4   3397.6   7.4106 26342.4
 08 10 2016  04 06  -15.5196 26122.2   3398.2   7.4120 26342.3
 08 10 2016  04 07  -15.5203 26121.8   3397.9   7.4113 26341.9
 08 10 2016  04 08  -15.5196 26121.9   3398.1   7.4119 26342.0
 08 10 2016  04 09  -15.5198 26121.7   3398.0   7.4115 26341.8
 08 10 2016  04 10  -15.5197 26121.7   3397.5   7.4106 26341.7
 08 10 2016  04 11  -15.5198 26121.4   3398.9   7.4137 26341.6
 08 10 2016  04 12  -15.5215 26121.1   3397.2   7.4100 26341.0
 08 10 2016  04 13  -15.5203 26121.4   3396.2   7.4078 26341.2
 08 10 2016  04 14  -15.5199 26121.0   3398.7   7.4133 26341.1
 08 10 2016  04 15  -15.5210 26120.8   3397.0   7.4097 26340.8
 08 10 2016  04 16  -15.5208 26120.6   3397.7   7.4113 26340.7
 08 10 2016  04 17  -15.5206 26120.5   3398.5   7.4129 26340.6
 08 10 2016  04 18  -15.5201 26120.2   3399.5   7.4153 26340.5
 08 10 2016  04 19  -15.5202 26120.5   3397.1   7.4099 26340.4
 08 10 2016  04 20  -15.5204 26120.1   3397.9   7.4119 26340.1
 08 10 2016  04 21  -15.5197 26119.7   3399.9   7.4163 26340.1
 08 10 2016  04 22  -15.5218 26119.0   3399.0   7.4144 26339.3
 08 10 2016  04 23  -15.5216 26119.2   3398.1   7.4124 26339.3
 08 10 2016  04 24  -15.5207 26119.3   3398.6   7.4135 26339.4
 08 10 2016  04 25  -15.5209 26119.5   3397.0   7.4100 26339.5
 08 10 2016  04 26  -15.5206 26119.6   3398.8   7.4139 26339.8
 08 10 2016  04 27  -15.5197 26120.3   3398.7   7.4136 26340.5
 08 10 2016  04 28  -15.5199 26120.3   3399.4   7.4151 26340.5
 08 10 2016  04 29  -15.5200 26120.7   3399.7   7.4155 26341.0
 08 10 2016  04 30  -15.5204 26121.2   3398.1   7.4120 26341.3
 08 10 2016  04 31  -15.5191 26121.7   3399.2   7.4142 26341.9
 08 10 2016  04 32  -15.5204 26121.7   3399.8   7.4156 26342.0
 08 10 2016  04 33  -15.5199 26123.5   3400.7   7.4170 26343.9
 08 10 2016  04 34  -15.5204 26124.6   3400.6   7.4164 26345.0
 08 10 2016  04 35  -15.5206 26126.3   3402.8   7.4207 26347.0
 08 10 2016  04 36  -15.5202 26128.4   3403.4   7.4215 26349.1
 08 10 2016  04 37  -15.5194 26129.4   3404.1   7.4226 26350.2
 08 10 2016  04 38  -15.5206 26130.1   3403.1   7.4203 26350.8
 08 10 2016  04 39  -15.5207 26131.9   3400.3   7.4138 26352.2
 08 10 2016  04 40  -15.5193 26132.9   3403.3   7.4200 26353.6
 08 10 2016  04 41  -15.5218 26133.2   3400.5   7.4137 26353.5
 08 10 2016  04 42  -15.5213 26134.0   3399.9   7.4123 26354.3
 08 10 2016  04 43  -15.5215 26134.6   3401.2   7.4148 26355.0
 08 10 2016  04 44  -15.5215 26134.7   3400.6   7.4136 26355.0
 08 10 2016  04 45  -15.5205 26135.2   3400.6   7.4134 26355.5
 08 10 2016  04 46  -15.5223 26135.4   3401.3   7.4148 26355.7
 08 10 2016  04 47  -15.5231 26135.6   3399.7   7.4114 26355.8
 08 10 2016  04 48  -15.5228 26136.0   3398.9   7.4094 26356.1
 08 10 2016  04 49  -15.5224 26135.8   3400.5   7.4131 26356.1
 08 10 2016  04 50  -15.5209 26136.4   3401.7   7.4156 26356.8
 08 10 2016  04 51  -15.5225 26135.9   3401.2   7.4145 26356.3
 08 10 2016  04 52  -15.5236 26136.1   3399.0   7.4097 26356.2
 08 10 2016  04 53  -15.5220 26136.3   3400.4   7.4127 26356.5
 08 10 2016  04 54  -15.5227 26136.4   3399.4   7.4106 26356.5
 08 10 2016  04 55  -15.5226 26135.9   3400.3   7.4127 26356.2
 08 10 2016  04 56  -15.5211 26136.2   3400.3   7.4126 26356.5
 08 10 2016  04 57  -15.5211 26136.0   3399.6   7.4111 26356.2
 08 10 2016  04 58  -15.5210 26135.9   3398.5   7.4088 26355.9
 08 10 2016  04 59  -15.5203 26135.7   3398.9   7.4096 26355.8
 08 10 2016  05 00  -15.5201 26135.4   3399.7   7.4114 26355.6
 08 10 2016  05 01  -15.5182 26135.6   3400.4   7.4128 26355.9
 08 10 2016  05 02  -15.5194 26135.1   3399.9   7.4119 26355.3
 08 10 2016  05 03  -15.5188 26135.1   3399.2   7.4104 26355.2
 08 10 2016  05 04  -15.5183 26134.7   3400.3   7.4129 26355.0
 08 10 2016  05 05  -15.5190 26134.4   3398.8   7.4097 26354.5
 08 10 2016  05 06  -15.5186 26133.8   3398.9   7.4103 26353.9
 08 10 2016  05 07  -15.5170 26133.5   3398.8   7.4101 26353.6
 08 10 2016  05 08  -15.5164 26132.8   3399.4   7.4116 26352.9
 08 10 2016  05 09  -15.5162 26132.3   3399.3   7.4114 26352.5
 08 10 2016  05 10  -15.5160 26131.9   3399.0   7.4110 26352.1
 08 10 2016  05 11  -15.5164 26131.1   3400.5   7.4143 26351.5
 08 10 2016  05 12  -15.5169 26131.1   3398.3   7.4096 26351.2
 08 10 2016  05 13  -15.5167 26130.8   3398.8   7.4107 26350.9
 08 10 2016  05 14  -15.5181 26130.0   3397.5   7.4083 26350.0
 08 10 2016  05 15  -15.5187 26129.7   3397.3   7.4079 26349.6
 08 10 2016  05 16  -15.5179 26129.5   3397.5   7.4084 26349.4
 08 10 2016  05 17  -15.5177 26129.4   3397.6   7.4087 26349.4
 08 10 2016  05 18  -15.5169 26129.3   3399.3   7.4123 26349.5
 08 10 2016  05 19  -15.5181 26129.2   3398.0   7.4095 26349.2
 08 10 2016  05 20  -15.5189 26128.7   3398.9   7.4116 26348.8
 08 10 2016  05 21  -15.5191 26128.5   3399.2   7.4122 26348.7
 08 10 2016  05 22  -15.5194 26127.9   3400.5   7.4153 26348.3
 08 10 2016  05 23  -15.5194 26128.0   3399.1   7.4122 26348.2
 08 10 2016  05 24  -15.5213 26127.5   3398.6   7.4113 26347.6
 08 10 2016  05 25  -15.5217 26127.2   3398.6   7.4114 26347.4
 08 10 2016  05 26  -15.5211 26127.0   3399.6   7.4135 26347.3
 08 10 2016  05 27  -15.5220 26126.8   3398.1   7.4104 26346.8
 08 10 2016  05 28  -15.5211 26126.7   3398.6   7.4115 26346.8
 08 10 2016  05 29  -15.5206 26126.6   3399.1   7.4126 26346.8
 08 10 2016  05 30  -15.5214 26126.0   3400.1   7.4149 26346.3
 08 10 2016  05 31  -15.5215 26126.0   3399.3   7.4133 26346.2
 08 10 2016  05 32  -15.5213 26125.8   3399.6   7.4140 26346.0
 08 10 2016  05 33  -15.5211 26125.9   3400.3   7.4153 26346.2
 08 10 2016  05 34  -15.5218 26125.3   3399.2   7.4131 26345.5
 08 10 2016  05 35  -15.5226 26125.2   3399.3   7.4135 26345.4
 08 10 2016  05 36  -15.5225 26125.3   3399.1   7.4129 26345.5
 08 10 2016  05 37  -15.5232 26124.9   3400.0   7.4151 26345.3
 08 10 2016  05 38  -15.5236 26124.8   3399.9   7.4148 26345.1
 08 10 2016  05 39  -15.5222 26125.0   3399.3   7.4134 26345.2
 08 10 2016  05 40  -15.5223 26124.5   3399.2   7.4134 26344.7
 08 10 2016  05 41  -15.5227 26123.9   3400.7   7.4168 26344.3
 08 10 2016  05 42  -15.5219 26123.8   3401.6   7.4188 26344.4
 08 10 2016  05 43  -15.5236 26123.7   3399.8   7.4150 26344.0
 08 10 2016  05 44  -15.5221 26124.1   3400.3   7.4159 26344.5
 08 10 2016  05 45  -15.5237 26124.1   3399.7   7.4147 26344.4
 08 10 2016  05 46  -15.5241 26124.1   3398.4   7.4118 26344.2
 08 10 2016  05 47  -15.5235 26123.9   3400.8   7.4170 26344.4
 08 10 2016  05 48  -15.5245 26123.8   3400.6   7.4166 26344.2
 08 10 2016  05 49  -15.5252 26123.8   3400.6   7.4166 26344.2
 08 10 2016  05 50  -15.5234 26124.2   3401.2   7.4179 26344.7
 08 10 2016  05 51  -15.5242 26124.2   3400.2   7.4157 26344.6
 08 10 2016  05 52  -15.5244 26124.0   3400.7   7.4168 26344.4
 08 10 2016  05 53  -15.5235 26124.1   3401.4   7.4182 26344.6
 08 10 2016  05 54  -15.5249 26124.1   3399.5   7.4141 26344.4
 08 10 2016  05 55  -15.5249 26124.2   3400.5   7.4163 26344.6
 08 10 2016  05 56  -15.5246 26124.3   3401.6   7.4187 26344.8
 08 10 2016  05 57  -15.5250 26124.7   3399.4   7.4137 26345.0
 08 10 2016  05 58  -15.5257 26124.6   3401.0   7.4172 26345.1
 08 10 2016  05 59  -15.5242 26125.2   3400.7   7.4165 26345.6
 08 10 2016  06 00  -15.5248 26124.8   3402.2   7.4199 26345.4
 08 10 2016  06 01  -15.5234 26124.9   3402.3   7.4201 26345.5
 08 10 2016  06 02  -15.5232 26124.9   3399.6   7.4142 26345.2
 08 10 2016  06 03  -15.5235 26124.5   3399.3   7.4136 26344.7
 08 10 2016  06 04  -15.5231 26124.3   3400.2   7.4157 26344.7
 08 10 2016  06 05  -15.5242 26124.2   3399.0   7.4130 26344.4
 08 10 2016  06 06  -15.5237 26124.0   3401.3   7.4180 26344.5
 08 10 2016  06 07  -15.5234 26124.2   3400.1   7.4153 26344.5
 08 10 2016  06 08  -15.5219 26124.5   3400.6   7.4164 26344.9
 08 10 2016  06 09  -15.5240 26124.5   3399.1   7.4133 26344.7
 08 10 2016  06 10  -15.5243 26124.5   3399.5   7.4141 26344.8
 08 10 2016  06 11  -15.5234 26124.7   3401.7   7.4188 26345.2
 08 10 2016  06 12  -15.5242 26124.9   3400.7   7.4164 26345.3
 08 10 2016  06 13  -15.5253 26124.9   3400.5   7.4161 26345.3
 08 10 2016  06 14  -15.5259 26124.7   3400.5   7.4162 26345.1
 08 10 2016  06 15  -15.5266 26124.5   3399.8   7.4147 26344.8
 08 10 2016  06 16  -15.5266 26124.1   3400.3   7.4159 26344.5
 08 10 2016  06 17  -15.5267 26123.9   3399.8   7.4149 26344.2
 08 10 2016  06 18  -15.5256 26124.2   3400.4   7.4161 26344.6
 08 10 2016  06 19  -15.5276 26124.0   3399.3   7.4137 26344.2
 08 10 2016  06 20  -15.5266 26124.2   3400.7   7.4167 26344.6
 08 10 2016  06 21  -15.5273 26124.0   3400.3   7.4159 26344.4
 08 10 2016  06 22  -15.5269 26123.9   3401.4   7.4184 26344.4
 08 10 2016  06 23  -15.5263 26124.1   3401.6   7.4186 26344.6
 08 10 2016  06 24  -15.5245 26124.9   3400.4   7.4159 26345.2
 08 10 2016  06 25  -15.5249 26124.5   3401.0   7.4173 26344.9
 08 10 2016  06 26  -15.5254 26124.5   3399.6   7.4143 26344.7
 08 10 2016  06 27  -15.5234 26124.5   3401.7   7.4188 26345.1
 08 10 2016  06 28  -15.5236 26124.7   3400.2   7.4155 26345.1
 08 10 2016  06 29  -15.5226 26125.0   3400.7   7.4166 26345.4
 08 10 2016  06 30  -15.5229 26125.1   3400.3   7.4155 26345.4
 08 10 2016  06 31  -15.5221 26125.4   3401.6   7.4183 26345.9
 08 10 2016  06 32  -15.5235 26125.2   3401.0   7.4172 26345.7
 08 10 2016  06 33  -15.5223 26125.8   3400.8   7.4164 26346.2
 08 10 2016  06 34  -15.5226 26126.0   3400.7   7.4163 26346.4
 08 10 2016  06 35  -15.5233 26125.8   3401.1   7.4170 26346.3
 08 10 2016  06 36  -15.5233 26126.1   3400.5   7.4157 26346.4
 08 10 2016  06 37  -15.5227 26126.2   3401.1   7.4169 26346.6
 08 10 2016  06 38  -15.5242 26125.8   3400.6   7.4161 26346.2
 08 10 2016  06 39  -15.5224 26126.4   3401.0   7.4168 26346.8
 08 10 2016  06 40  -15.5229 26126.3   3400.6   7.4160 26346.7
 08 10 2016  06 41  -15.5248 26125.8   3400.7   7.4163 26346.2
 08 10 2016  06 42  -15.5240 26125.9   3400.6   7.4160 26346.3
 08 10 2016  06 43  -15.5234 26126.0   3401.3   7.4175 26346.5
 08 10 2016  06 44  -15.5256 26125.7   3399.8   7.4143 26346.0
 08 10 2016  06 45  -15.5253 26125.7   3401.9   7.4189 26346.2
 08 10 2016  06 46  -15.5250 26126.2   3401.5   7.4179 26346.7
 08 10 2016  06 47  -15.5249 26126.5   3401.8   7.4184 26347.1
 08 10 2016  06 48  -15.5245 26126.9   3401.2   7.4171 26347.4
 08 10 2016  06 49  -15.5244 26126.9   3401.6   7.4179 26347.4
 08 10 2016  06 50  -15.5247 26127.0   3400.4   7.4153 26347.3
 08 10 2016  06 51  -15.5244 26127.0   3401.1   7.4169 26347.5
 08 10 2016  06 52  -15.5248 26127.1   3400.4   7.4154 26347.4
 08 10 2016  06 53  -15.5257 26126.7   3401.3   7.4173 26347.2
 08 10 2016  06 54  -15.5252 26126.9   3400.7   7.4160 26347.3
 08 10 2016  06 55  -15.5246 26127.2   3400.9   7.4164 26347.6
 08 10 2016  06 56  -15.5251 26127.5   3399.6   7.4135 26347.7
 08 10 2016  06 57  -15.5257 26127.3   3400.8   7.4162 26347.7
 08 10 2016  06 58  -15.5247 26127.6   3401.0   7.4164 26348.0
 08 10 2016  06 59  -15.5253 26127.6   3400.3   7.4149 26347.9
 08 10 2016  07 00  -15.5263 26127.3   3400.7   7.4159 26347.6
 08 10 2016  07 01  -15.5264 26127.4   3400.7   7.4158 26347.8
 08 10 2016  07 02  -15.5274 26127.2   3400.7   7.4158 26347.6
 08 10 2016  07 03  -15.5279 26127.3   3400.5   7.4154 26347.6
 08 10 2016  07 04  -15.5281 26127.4   3399.7   7.4137 26347.7
 08 10 2016  07 05  -15.5286 26127.1   3401.0   7.4165 26347.5
 08 10 2016  07 06  -15.5283 26127.3   3400.9   7.4162 26347.7
 08 10 2016  07 07  -15.5296 26127.2   3400.0   7.4143 26347.5
 08 10 2016  07 08  -15.5283 26127.6   3400.9   7.4162 26348.0
 08 10 2016  07 09  -15.5292 26127.6   3401.5   7.4175 26348.0
 08 10 2016  07 10  -15.5291 26127.9   3401.5   7.4175 26348.4
 08 10 2016  07 11  -15.5291 26128.5   3400.7   7.4154 26348.9
 08 10 2016  07 12  -15.5282 26129.1   3401.1   7.4162 26349.5
 08 10 2016  07 13  -15.5284 26129.0   3401.9   7.4179 26349.5
 08 10 2016  07 14  -15.5298 26128.7   3400.9   7.4158 26349.1
 08 10 2016  07 15  -15.5300 26128.8   3399.8   7.4136 26349.1
 08 10 2016  07 16  -15.5295 26128.9   3400.4   7.4148 26349.3
 08 10 2016  07 17  -15.5280 26129.4   3400.7   7.4154 26349.8
 08 10 2016  07 18  -15.5265 26129.6   3402.7   7.4196 26350.2
 08 10 2016  07 19  -15.5271 26129.6   3401.1   7.4160 26350.0
 08 10 2016  07 20  -15.5266 26129.9   3399.9   7.4134 26350.1
 08 10 2016  07 21  -15.5257 26129.6   3402.5   7.4190 26350.2
 08 10 2016  07 22  -15.5268 26129.3   3401.8   7.4176 26349.8
 08 10 2016  07 23  -15.5264 26129.4   3402.4   7.4189 26350.0
 08 10 2016  07 24  -15.5277 26129.6   3399.8   7.4132 26349.8
 08 10 2016  07 25  -15.5280 26129.6   3399.6   7.4127 26349.8
 08 10 2016  07 26  -15.5262 26129.9   3400.5   7.4146 26350.3
 08 10 2016  07 27  -15.5256 26129.9   3400.9   7.4156 26350.3
 08 10 2016  07 28  -15.5255 26130.0   3400.5   7.4146 26350.4
 08 10 2016  07 29  -15.5257 26130.0   3401.1   7.4160 26350.4
 08 10 2016  07 30  -15.5248 26130.6   3401.1   7.4158 26351.0
 08 10 2016  07 31  -15.5246 26131.1   3401.4   7.4162 26351.5
 08 10 2016  07 32  -15.5250 26131.4   3401.5   7.4165 26351.8
 08 10 2016  07 33  -15.5239 26131.9   3402.0   7.4174 26352.4
 08 10 2016  07 34  -15.5248 26131.8   3401.2   7.4156 26352.2
 08 10 2016  07 35  -15.5238 26131.8   3401.2   7.4158 26352.2
 08 10 2016  07 36  -15.5236 26131.5   3401.9   7.4173 26352.0
 08 10 2016  07 37  -15.5237 26131.4   3401.9   7.4174 26351.9
 08 10 2016  07 38  -15.5241 26131.4   3399.8   7.4127 26351.7
 08 10 2016  07 39  -15.5215 26131.4   3401.7   7.4168 26351.9
 08 10 2016  07 40  -15.5218 26130.9   3401.6   7.4168 26351.4
 08 10 2016  07 41  -15.5203 26131.2   3401.3   7.4162 26351.6
 08 10 2016  07 42  -15.5191 26131.5   3401.9   7.4172 26352.0
 08 10 2016  07 43  -15.5193 26131.8   3400.3   7.4138 26352.1
 08 10 2016  07 44  -15.5191 26132.0   3400.1   7.4132 26352.3
 08 10 2016  07 45  -15.5200 26131.6   3401.3   7.4159 26352.0
 08 10 2016  07 46  -15.5179 26131.7   3401.6   7.4166 26352.2
 08 10 2016  07 47  -15.5185 26131.3   3400.6   7.4145 26351.7
 08 10 2016  07 48  -15.5193 26130.7   3401.2   7.4160 26351.1
 08 10 2016  07 49  -15.5186 26130.5   3401.0   7.4156 26350.9
 08 10 2016  07 50  -15.5178 26130.7   3400.2   7.4138 26351.0
 08 10 2016  07 51  -15.5171 26130.7   3401.6   7.4169 26351.2
 08 10 2016  07 52  -15.5174 26131.1   3399.9   7.4130 26351.3
 08 10 2016  07 53  -15.5154 26131.4   3401.7   7.4168 26351.9
 08 10 2016  07 54  -15.5157 26131.9   3400.0   7.4130 26352.2
 08 10 2016  07 55  -15.5160 26132.0   3400.9   7.4149 26352.4
 08 10 2016  07 56  -15.5158 26132.1   3402.3   7.4179 26352.6
 08 10 2016  07 57  -15.5171 26132.1   3401.1   7.4154 26352.5
 08 10 2016  07 58  -15.5170 26132.3   3400.7   7.4146 26352.7
 08 10 2016  07 59  -15.5179 26132.1   3400.8   7.4147 26352.4
 08 10 2016  08 00  -15.5184 26131.9   3400.7   7.4146 26352.3
 08 10 2016  08 01  -15.5184 26131.8   3400.6   7.4143 26352.1
 08 10 2016  08 02  -15.5193 26131.5   3400.8   7.4148 26351.9
 08 10 2016  08 03  -15.5191 26131.7   3400.1   7.4132 26352.0
 08 10 2016  08 04  -15.5198 26131.4   3400.5   7.4143 26351.7
 08 10 2016  08 05  -15.5202 26131.1   3400.8   7.4150 26351.5
 08 10 2016  08 06  -15.5203 26130.8   3402.0   7.4177 26351.4
 08 10 2016  08 07  -15.5205 26131.0   3400.2   7.4137 26351.3
 08 10 2016  08 08  -15.5196 26131.1   3400.6   7.4145 26351.5
 08 10 2016  08 09  -15.5210 26130.9   3400.1   7.4135 26351.2
 08 10 2016  08 10  -15.5216 26130.8   3400.4   7.4143 26351.2
 08 10 2016  08 11  -15.5212 26130.9   3401.3   7.4162 26351.3
 08 10 2016  08 12  -15.5212 26131.2   3399.7   7.4126 26351.4
 08 10 2016  08 13  -15.5209 26131.2   3400.9   7.4153 26351.6
 08 10 2016  08 14  -15.5221 26131.0   3400.5   7.4145 26351.3
 08 10 2016  08 15  -15.5217 26130.9   3401.3   7.4161 26351.3
 08 10 2016  08 16  -15.5213 26130.8   3402.0   7.4176 26351.3
 08 10 2016  08 17  -15.5219 26130.9   3400.2   7.4137 26351.2
 08 10 2016  08 18  -15.5206 26131.2   3401.0   7.4154 26351.5
 08 10 2016  08 19  -15.5219 26131.0   3399.8   7.4129 26351.2
 08 10 2016  08 20  -15.5215 26131.1   3400.0   7.4132 26351.3
 08 10 2016  08 21  -15.5219 26130.9   3401.0   7.4154 26351.3
 08 10 2016  08 22  -15.5214 26131.1   3401.1   7.4157 26351.5
 08 10 2016  08 23  -15.5218 26131.3   3400.8   7.4150 26351.6
 08 10 2016  08 24  -15.5216 26131.6   3400.5   7.4142 26351.9
 08 10 2016  08 25  -15.5217 26131.6   3400.6   7.4145 26351.9
 08 10 2016  08 26  -15.5216 26131.7   3400.6   7.4143 26352.0
 08 10 2016  08 27  -15.5235 26131.3   3400.0   7.4133 26351.5
 08 10 2016  08 28  -15.5225 26131.6   3400.3   7.4137 26351.9
 08 10 2016  08 29  -15.5230 26131.6   3400.4   7.4141 26352.0
 08 10 2016  08 30  -15.5229 26131.7   3401.0   7.4153 26352.0
 08 10 2016  08 31  -15.5228 26131.8   3400.7   7.4146 26352.2
 08 10 2016  08 32  -15.5218 26131.9   3401.9   7.4172 26352.4
 08 10 2016  08 33  -15.5227 26131.7   3402.2   7.4178 26352.2
 08 10 2016  08 34  -15.5226 26132.1   3399.8   7.4126 26352.3
 08 10 2016  08 35  -15.5220 26131.9   3401.2   7.4157 26352.3
 08 10 2016  08 36  -15.5219 26131.8   3401.3   7.4158 26352.2
 08 10 2016  08 37  -15.5216 26131.8   3400.8   7.4148 26352.2
 08 10 2016  08 38  -15.5214 26131.9   3400.6   7.4144 26352.2
 08 10 2016  08 39  -15.5211 26131.8   3401.5   7.4163 26352.2
 08 10 2016  08 40  -15.5203 26131.9   3401.5   7.4164 26352.4
 08 10 2016  08 41  -15.5208 26131.9   3400.8   7.4148 26352.3
 08 10 2016  08 42  -15.5189 26132.4   3401.3   7.4158 26352.8
 08 10 2016  08 43  -15.5195 26132.3   3401.8   7.4169 26352.8
 08 10 2016  08 44  -15.5182 26132.8   3402.1   7.4173 26353.3
 08 10 2016  08 45  -15.5188 26132.8   3401.9   7.4169 26353.3
 08 10 2016  08 46  -15.5184 26133.1   3401.3   7.4154 26353.5
 08 10 2016  08 47  -15.5186 26133.0   3401.8   7.4166 26353.5
 08 10 2016  08 48  -15.5181 26133.0   3402.4   7.4180 26353.6
 08 10 2016  08 49  -15.5184 26133.1   3401.6   7.4162 26353.6
 08 10 2016  08 50  -15.5180 26133.2   3401.7   7.4163 26353.6
 08 10 2016  08 51  -15.5190 26133.1   3400.5   7.4138 26353.4
 08 10 2016  08 52  -15.5190 26132.8   3401.5   7.4159 26353.3
 08 10 2016  08 53  -15.5185 26133.0   3401.3   7.4155 26353.4
 08 10 2016  08 54  -15.5178 26133.3   3401.1   7.4151 26353.7
 08 10 2016  08 55  -15.5184 26133.3   3400.4   7.4136 26353.6
 08 10 2016  08 56  -15.5177 26133.4   3401.8   7.4166 26353.8
 08 10 2016  08 57  -15.5179 26133.4   3401.8   7.4165 26353.8
 08 10 2016  08 58  -15.5176 26133.4   3401.8   7.4166 26353.9
 08 10 2016  08 59  -15.5177 26133.4   3401.8   7.4166 26353.9
 08 10 2016  09 00  -15.5175 26133.5   3401.7   7.4163 26353.9
 08 10 2016  09 01  -15.5173 26133.6   3402.0   7.4170 26354.1
 08 10 2016  09 02  -15.5175 26133.5   3402.1   7.4172 26354.1
 08 10 2016  09 03  -15.5172 26133.6   3402.0   7.4170 26354.1
 08 10 2016  09 04  -15.5176 26133.3   3401.8   7.4165 26353.8
 08 10 2016  09 05  -15.5166 26133.2   3402.3   7.4177 26353.8
 08 10 2016  09 06  -15.5177 26132.8   3401.3   7.4157 26353.3
 08 10 2016  09 07  -15.5165 26132.6   3402.9   7.4192 26353.2
 08 10 2016  09 08  -15.5166 26132.6   3402.8   7.4189 26353.3
 08 10 2016  09 09  -15.5167 26132.8   3402.0   7.4171 26353.3
 08 10 2016  09 10  -15.5152 26133.1   3402.2   7.4175 26353.7
 08 10 2016  09 11  -15.5162 26133.0   3403.2   7.4196 26353.7
 08 10 2016  09 12  -15.5165 26133.5   3401.6   7.4162 26353.9
 08 10 2016  09 13  -15.5158 26133.3   3403.6   7.4203 26354.1
 08 10 2016  09 14  -15.5154 26133.6   3403.1   7.4192 26354.2
 08 10 2016  09 15  -15.5160 26133.4   3403.1   7.4194 26354.0
 08 10 2016  09 16  -15.5157 26133.6   3402.8   7.4186 26354.2
 08 10 2016  09 17  -15.5155 26133.4   3403.2   7.4195 26354.0
 08 10 2016  09 18  -15.5158 26133.0   3403.0   7.4192 26353.7
 08 10 2016  09 19  -15.5156 26132.9   3402.7   7.4186 26353.5
 08 10 2016  09 20  -15.5150 26133.0   3403.1   7.4195 26353.7
 08 10 2016  09 21  -15.5146 26133.2   3403.6   7.4205 26354.0
 08 10 2016  09 22  -15.5141 26133.5   3402.5   7.4181 26354.1
 08 10 2016  09 23  -15.5150 26132.9   3403.6   7.4205 26353.6
 08 10 2016  09 24  -15.5159 26132.6   3402.3   7.4179 26353.2
 08 10 2016  09 25  -15.5141 26132.8   3402.7   7.4186 26353.4
 08 10 2016  09 26  -15.5143 26132.5   3403.0   7.4195 26353.1
 08 10 2016  09 27  -15.5139 26132.1   3404.8   7.4233 26352.9
 08 10 2016  09 28  -15.5138 26131.9   3403.6   7.4207 26352.6
 08 10 2016  09 29  -15.5144 26131.6   3403.4   7.4206 26352.3
 08 10 2016  09 30  -15.5127 26131.8   3404.5   7.4228 26352.6
 08 10 2016  09 31  -15.5130 26131.3   3403.9   7.4215 26352.1
 08 10 2016  09 32  -15.5133 26131.1   3404.9   7.4238 26352.0
 08 10 2016  09 33  -15.5132 26131.2   3403.9   7.4217 26352.0
 08 10 2016  09 34  -15.5129 26130.7   3405.3   7.4247 26351.7
 08 10 2016  09 35  -15.5133 26130.6   3404.5   7.4231 26351.4
 08 10 2016  09 36  -15.5129 26130.2   3406.2   7.4269 26351.2
 08 10 2016  09 37  -15.5132 26130.0   3406.0   7.4265 26351.1
 08 10 2016  09 38  -15.5139 26129.6   3406.3   7.4274 26350.7
 08 10 2016  09 39  -15.5129 26129.8   3406.3   7.4271 26350.9
 08 10 2016  09 40  -15.5151 26129.3   3405.6   7.4258 26350.3
 08 10 2016  09 41  -15.5139 26129.5   3406.1   7.4270 26350.5
 08 10 2016  09 42  -15.5151 26129.2   3405.9   7.4266 26350.2
 08 10 2016  09 43  -15.5140 26129.7   3405.1   7.4246 26350.6
 08 10 2016  09 44  -15.5147 26129.3   3405.6   7.4259 26350.3
 08 10 2016  09 45  -15.5134 26129.1   3406.9   7.4287 26350.3
 08 10 2016  09 46  -15.5153 26128.2   3405.5   7.4260 26349.2
 08 10 2016  09 47  -15.5148 26128.0   3406.0   7.4271 26349.0
 08 10 2016  09 48  -15.5143 26127.6   3406.3   7.4278 26348.7
 08 10 2016  09 49  -15.5138 26127.3   3407.4   7.4303 26348.5
 08 10 2016  09 50  -15.5155 26126.9   3405.9   7.4272 26347.9
 08 10 2016  09 51  -15.5146 26126.9   3406.1   7.4277 26348.0
 08 10 2016  09 52  -15.5150 26126.7   3406.6   7.4288 26347.9
 08 10 2016  09 53  -15.5147 26127.2   3406.6   7.4286 26348.3
 08 10 2016  09 54  -15.5140 26127.3   3407.3   7.4300 26348.5
 08 10 2016  09 55  -15.5150 26126.9   3408.3   7.4324 26348.3
 08 10 2016  09 56  -15.5139 26127.4   3408.3   7.4323 26348.8
 08 10 2016  09 57  -15.5145 26126.8   3409.2   7.4343 26348.3
 08 10 2016  09 58  -15.5140 26126.6   3407.9   7.4317 26347.9
 08 10 2016  09 59  -15.5147 26125.9   3406.8   7.4294 26347.1
 08 10 2016  10 00  -15.5145 26125.1   3406.8   7.4296 26346.3
 08 10 2016  10 01  -15.5149 26124.2   3408.8   7.4342 26345.6
 08 10 2016  10 02  -15.5139 26124.1   3409.5   7.4358 26345.6
 08 10 2016  10 03  -15.5140 26124.2   3410.2   7.4371 26345.8
 08 10 2016  10 04  -15.5150 26124.2   3409.2   7.4350 26345.7
 08 10 2016  10 05  -15.5150 26124.3   3410.1   7.4369 26345.9
 08 10 2016  10 06  -15.5143 26124.9   3409.9   7.4363 26346.5
 08 10 2016  10 07  -15.5145 26125.0   3410.2   7.4370 26346.6
 08 10 2016  10 08  -15.5136 26125.1   3410.9   7.4385 26346.8
 08 10 2016  10 09  -15.5138 26124.8   3410.6   7.4380 26346.4
 08 10 2016  10 10  -15.5136 26124.6   3410.1   7.4369 26346.2
 08 10 2016  10 11  -15.5136 26124.3   3410.6   7.4381 26346.0
 08 10 2016  10 12  -15.5133 26124.2   3411.1   7.4391 26346.0
 08 10 2016  10 13  -15.5136 26124.3   3410.4   7.4376 26346.0
 08 10 2016  10 14  -15.5135 26124.2   3410.5   7.4378 26345.9
 08 10 2016  10 15  -15.5137 26124.0   3411.9   7.4409 26345.8
 08 10 2016  10 16  -15.5138 26123.9   3411.7   7.4406 26345.8
 08 10 2016  10 17  -15.5128 26124.1   3411.7   7.4406 26346.0
 08 10 2016  10 18  -15.5142 26123.8   3411.1   7.4392 26345.5
 08 10 2016  10 19  -15.5136 26123.6   3411.5   7.4403 26345.5
 08 10 2016  10 20  -15.5135 26123.5   3411.8   7.4409 26345.3
 08 10 2016  10 21  -15.5137 26123.4   3412.3   7.4420 26345.3
 08 10 2016  10 22  -15.5135 26123.4   3412.8   7.4431 26345.4
 08 10 2016  10 23  -15.5144 26123.6   3411.7   7.4407 26345.4
 08 10 2016  10 24  -15.5140 26123.7   3412.0   7.4412 26345.5
 08 10 2016  10 25  -15.5146 26123.5   3413.8   7.4453 26345.6
 08 10 2016  10 26  -15.5142 26124.0   3413.9   7.4453 26346.1
 08 10 2016  10 27  -15.5143 26124.6   3412.8   7.4427 26346.5
 08 10 2016  10 28  -15.5146 26124.8   3414.3   7.4458 26347.0
 08 10 2016  10 29  -15.5148 26125.1   3413.8   7.4447 26347.2
 08 10 2016  10 30  -15.5142 26125.4   3413.6   7.4442 26347.5
 08 10 2016  10 31  -15.5144 26125.4   3413.5   7.4440 26347.5
 08 10 2016  10 32  -15.5150 26125.3   3414.2   7.4456 26347.4
 08 10 2016  10 33  -15.5139 26125.6   3415.1   7.4474 26347.8
 08 10 2016  10 34  -15.5144 26125.1   3414.9   7.4472 26347.4
 08 10 2016  10 35  -15.5145 26124.9   3415.4   7.4482 26347.2
 08 10 2016  10 36  -15.5147 26124.7   3414.5   7.4463 26346.9
 08 10 2016  10 37  -15.5148 26124.5   3414.3   7.4460 26346.7
 08 10 2016  10 38  -15.5146 26124.2   3415.7   7.4490 26346.6
 08 10 2016  10 39  -15.5143 26124.3   3415.5   7.4487 26346.7
 08 10 2016  10 40  -15.5153 26124.2   3414.9   7.4473 26346.4
 08 10 2016  10 41  -15.5154 26123.9   3414.9   7.4474 26346.2
 08 10 2016  10 42  -15.5138 26124.0   3415.5   7.4487 26346.3
 08 10 2016  10 43  -15.5141 26123.3   3416.0   7.4500 26345.7
 08 10 2016  10 44  -15.5136 26123.1   3417.1   7.4525 26345.6
 08 10 2016  10 45  -15.5140 26123.2   3416.4   7.4510 26345.7
 08 10 2016  10 46  -15.5141 26123.0   3416.2   7.4504 26345.5
 08 10 2016  10 47  -15.5135 26123.1   3416.5   7.4512 26345.6
 08 10 2016  10 48  -15.5134 26123.5   3416.0   7.4500 26345.9
 08 10 2016  10 49  -15.5129 26123.5   3416.8   7.4517 26346.0
 08 10 2016  10 50  -15.5134 26123.3   3416.9   7.4519 26345.8
 08 10 2016  10 51  -15.5137 26123.1   3415.8   7.4496 26345.5
 08 10 2016  10 52  -15.5137 26122.9   3415.7   7.4495 26345.3
 08 10 2016  10 53  -15.5132 26122.9   3416.0   7.4501 26345.3
 08 10 2016  10 54  -15.5126 26122.9   3415.4   7.4488 26345.3
 08 10 2016  10 55  -15.5118 26122.5   3415.8   7.4497 26344.9
 08 10 2016  10 56  -15.5124 26122.5   3415.8   7.4498 26344.9
 08 10 2016  10 57  -15.5119 26123.0   3417.0   7.4522 26345.5
 08 10 2016  10 58  -15.5112 26123.2   3416.4   7.4509 26345.6
 08 10 2016  10 59  -15.5104 26123.0   3416.0   7.4501 26345.4
 08 10 2016  11 00  -15.5094 26122.7   3417.7   7.4538 26345.3
 08 10 2016  11 01  -15.5090 26122.9   3416.0   7.4500 26345.3
 08 10 2016  11 02  -15.5088 26123.1   3416.5   7.4511 26345.5
 08 10 2016  11 03  -15.5083 26123.1   3416.7   7.4515 26345.6
 08 10 2016  11 04  -15.5089 26123.4   3414.9   7.4476 26345.6
 08 10 2016  11 05  -15.5085 26123.5   3416.3   7.4505 26345.9
 08 10 2016  11 06  -15.5081 26123.6   3416.1   7.4502 26346.0
 08 10 2016  11 07  -15.5081 26123.8   3415.6   7.4491 26346.2
 08 10 2016  11 08  -15.5073 26124.5   3416.9   7.4516 26347.0
 08 10 2016  11 09  -15.5071 26125.2   3416.2   7.4500 26347.6
 08 10 2016  11 10  -15.5067 26125.6   3415.9   7.4491 26347.9
 08 10 2016  11 11  -15.5059 26125.7   3416.1   7.4494 26348.1
 08 10 2016  11 12  -15.5052 26125.1   3414.7   7.4468 26347.3
 08 10 2016  11 13  -15.5050 26124.5   3414.9   7.4472 26346.8
 08 10 2016  11 14  -15.5041 26125.5   3414.2   7.4456 26347.7
 08 10 2016  11 15  -15.5037 26126.3   3414.5   7.4459 26348.5
 08 10 2016  11 16  -15.5041 26126.3   3414.3   7.4455 26348.5
 08 10 2016  11 17  -15.5040 26126.5   3413.8   7.4443 26348.6
 08 10 2016  11 18  -15.5036 26127.2   3414.0   7.4445 26349.3
 08 10 2016  11 19  -15.5033 26127.4   3413.5   7.4435 26349.5
 08 10 2016  11 20  -15.5021 26127.7   3413.2   7.4428 26349.7
 08 10 2016  11 21  -15.5004 26128.1   3413.1   7.4424 26350.1
 08 10 2016  11 22  -15.4992 26128.8   3412.8   7.4415 26350.8
 08 10 2016  11 23  -15.4995 26129.5   3412.5   7.4408 26351.4
 08 10 2016  11 24  -15.4998 26129.9   3412.2   7.4400 26351.7
 08 10 2016  11 25  -15.4993 26130.3   3411.6   7.4385 26352.0
 08 10 2016  11 26  -15.4995 26130.5   3410.4   7.4360 26352.1
 08 10 2016  11 27  -15.4991 26130.6   3410.5   7.4360 26352.2
 08 10 2016  11 28  -15.4987 26131.0   3409.9   7.4346 26352.6
 08 10 2016  11 29  -15.4997 26131.2   3409.9   7.4347 26352.7
 08 10 2016  11 30  -15.4988 26132.1   3410.4   7.4355 26353.7
 08 10 2016  11 31  -15.4986 26132.5   3410.9   7.4364 26354.1
 08 10 2016  11 32  -15.4981 26132.5   3409.8   7.4341 26354.1
 08 10 2016  11 33  -15.4977 26132.8   3407.6   7.4292 26354.0
 08 10 2016  11 34  -15.4989 26132.4   3407.2   7.4285 26353.5
 08 10 2016  11 35  -15.4994 26132.3   3406.9   7.4279 26353.4
 08 10 2016  11 36  -15.4994 26132.2   3407.5   7.4291 26353.5
 08 10 2016  11 37  -15.4984 26132.9   3406.8   7.4274 26354.0
 08 10 2016  11 38  -15.4968 26133.4   3407.6   7.4290 26354.7
 08 10 2016  11 39  -15.4983 26133.4   3406.7   7.4272 26354.5
 08 10 2016  11 40  -15.4968 26133.7   3406.6   7.4268 26354.8
 08 10 2016  11 41  -15.4981 26133.3   3406.5   7.4267 26354.4
 08 10 2016  11 42  -15.4968 26133.7   3404.6   7.4225 26354.6
 08 10 2016  11 43  -15.4956 26134.2   3405.3   7.4238 26355.1
 08 10 2016  11 44  -15.4957 26134.2   3406.2   7.4258 26355.2
 08 10 2016  11 45  -15.4950 26134.9   3404.5   7.4219 26355.7
 08 10 2016  11 46  -15.4941 26135.2   3405.6   7.4242 26356.1
 08 10 2016  11 47  -15.4938 26135.9   3404.6   7.4219 26356.7
 08 10 2016  11 48  -15.4933 26136.6   3403.3   7.4188 26357.3
 08 10 2016  11 49  -15.4932 26136.9   3403.3   7.4189 26357.5
 08 10 2016  11 50  -15.4928 26137.3   3402.3   7.4165 26357.8
 08 10 2016  11 51  -15.4951 26136.6   3402.0   7.4161 26357.1
 08 10 2016  11 52  -15.4952 26136.5   3401.1   7.4141 26356.9
 08 10 2016  11 53  -15.4954 26136.3   3401.2   7.4145 26356.6
 08 10 2016  11 54  -15.4942 26136.5   3401.5   7.4150 26356.9
 08 10 2016  11 55  -15.4946 26136.3   3402.5   7.4172 26356.8
 08 10 2016  11 56  -15.4949 26136.4   3400.5   7.4130 26356.7
 08 10 2016  11 57  -15.4951 26136.4   3401.2   7.4144 26356.8
 08 10 2016  11 58  -15.4950 26136.9   3400.0   7.4116 26357.1
 08 10 2016  11 59  -15.4944 26137.3   3400.5   7.4127 26357.6
 08 10 2016  12 00  -15.4941 26137.5   3401.9   7.4157 26358.0
 08 10 2016  12 01  -15.4939 26138.2   3401.2   7.4138 26358.6
 08 10 2016  12 02  -15.4952 26138.5   3399.8   7.4109 26358.7
 08 10 2016  12 03  -15.4948 26138.9   3397.8   7.4064 26358.9
 08 10 2016  12 04  -15.4940 26139.1   3398.3   7.4074 26359.0
 08 10 2016  12 05  -15.4917 26139.6   3398.6   7.4078 26359.6
 08 10 2016  12 06  -15.4923 26139.7   3397.2   7.4048 26359.5
 08 10 2016  12 07  -15.4912 26140.5   3396.5   7.4031 26360.2
 08 10 2016  12 08  -15.4895 26141.5   3397.5   7.4050 26361.4
 08 10 2016  12 09  -15.4893 26142.4   3395.6   7.4006 26362.0
 08 10 2016  12 10  -15.4896 26142.6   3393.9   7.3968 26362.0
 08 10 2016  12 11  -15.4905 26142.7   3393.7   7.3964 26362.1
 08 10 2016  12 12  -15.4905 26142.8   3392.4   7.3935 26362.0
 08 10 2016  12 13  -15.4906 26142.3   3391.0   7.3907 26361.3
 08 10 2016  12 14  -15.4921 26141.2   3391.0   7.3912 26360.2
 08 10 2016  12 15  -15.4924 26140.8   3391.1   7.3913 26359.9
 08 10 2016  12 16  -15.4920 26141.0   3391.5   7.3923 26360.0
 08 10 2016  12 17  -15.4920 26141.2   3391.0   7.3910 26360.2
 08 10 2016  12 18  -15.4928 26141.4   3390.9   7.3909 26360.4
 08 10 2016  12 19  -15.4916 26142.2   3391.3   7.3914 26361.3
 08 10 2016  12 20  -15.4927 26142.3   3388.7   7.3857 26361.0
 08 10 2016  12 21  -15.4931 26142.0   3387.9   7.3841 26360.7
 08 10 2016  12 22  -15.4925 26141.7   3388.4   7.3852 26360.4
 08 10 2016  12 23  -15.4934 26141.6   3387.7   7.3839 26360.2
 08 10 2016  12 24  -15.4923 26142.2   3388.0   7.3843 26360.8
 08 10 2016  12 25  -15.4924 26142.3   3388.4   7.3850 26361.0
 08 10 2016  12 26  -15.4925 26142.7   3388.5   7.3852 26361.4
 08 10 2016  12 27  -15.4928 26143.3   3388.2   7.3845 26361.9
 08 10 2016  12 28  -15.4936 26144.5   3386.5   7.3804 26362.9
 08 10 2016  12 29  -15.4926 26145.9   3386.4   7.3798 26364.3
 08 10 2016  12 30  -15.4927 26146.8   3386.6   7.3801 26365.2
 08 10 2016  12 31  -15.4923 26147.9   3385.3   7.3769 26366.1
 08 10 2016  12 32  -15.4920 26148.9   3383.7   7.3731 26366.9
 08 10 2016  12 33  -15.4922 26149.5   3383.6   7.3727 26367.5
 08 10 2016  12 34  -15.4932 26149.8   3381.7   7.3686 26367.5
 08 10 2016  12 35  -15.4923 26150.0   3382.2   7.3697 26367.8
 08 10 2016  12 36  -15.4926 26150.4   3381.8   7.3686 26368.1
 08 10 2016  12 37  -15.4935 26150.9   3380.5   7.3656 26368.5
 08 10 2016  12 38  -15.4939 26151.2   3380.0   7.3644 26368.8
 08 10 2016  12 39  -15.4929 26151.7   3379.3   7.3630 26369.1
 08 10 2016  12 40  -15.4937 26151.7   3378.0   7.3600 26368.9
 08 10 2016  12 41  -15.4940 26152.1   3376.7   7.3572 26369.2
 08 10 2016  12 42  -15.4942 26152.6   3377.6   7.3589 26369.8
 08 10 2016  12 43  -15.4934 26153.7   3377.7   7.3589 26370.9
 08 10 2016  12 44  -15.4931 26154.7   3375.5   7.3540 26371.7
 08 10 2016  12 45  -15.4933 26155.0   3374.9   7.3525 26371.8
 08 10 2016  12 46  -15.4949 26154.4   3375.0   7.3528 26371.3
 08 10 2016  12 47  -15.4949 26155.0   3373.0   7.3484 26371.6
 08 10 2016  12 48  -15.4949 26155.2   3373.2   7.3488 26371.8
 08 10 2016  12 49  -15.4965 26155.3   3371.8   7.3457 26371.7
 08 10 2016  12 50  -15.4955 26155.9   3371.0   7.3439 26372.2
 08 10 2016  12 51  -15.4966 26155.7   3371.2   7.3443 26372.0
 08 10 2016  12 52  -15.4969 26156.1   3368.6   7.3387 26372.1
 08 10 2016  12 53  -15.4971 26156.3   3369.5   7.3406 26372.4
 08 10 2016  12 54  -15.4972 26156.6   3368.2   7.3376 26372.5
 08 10 2016  12 55  -15.4980 26156.7   3368.1   7.3373 26372.7
 08 10 2016  12 56  -15.4978 26157.6   3367.7   7.3363 26373.5
 08 10 2016  12 57  -15.4989 26157.8   3366.6   7.3338 26373.5
 08 10 2016  12 58  -15.5003 26158.1   3366.0   7.3325 26373.8
 08 10 2016  12 59  -15.5000 26158.7   3366.9   7.3343 26374.5
 08 10 2016  13 00  -15.5017 26159.4   3365.2   7.3303 26374.9
 08 10 2016  13 01  -15.5013 26159.9   3365.7   7.3313 26375.5
 08 10 2016  13 02  -15.5008 26160.8   3365.9   7.3316 26376.4
 08 10 2016  13 03  -15.5017 26160.8   3365.7   7.3310 26376.4
 08 10 2016  13 04  -15.5027 26160.6   3364.8   7.3292 26376.1
 08 10 2016  13 05  -15.5022 26160.6   3364.0   7.3274 26376.0
 08 10 2016  13 06  -15.5011 26161.8   3363.4   7.3259 26377.1
 08 10 2016  13 07  -15.5016 26162.7   3361.5   7.3214 26377.8
 08 10 2016  13 08  -15.5024 26163.3   3360.9   7.3201 26378.3
 08 10 2016  13 09  -15.5022 26163.8   3362.6   7.3237 26379.0
 08 10 2016  13 10  -15.5023 26164.4   3362.0   7.3221 26379.5
 08 10 2016  13 11  -15.5013 26165.5   3359.9   7.3172 26380.4
 08 10 2016  13 12  -15.5022 26166.3   3359.0   7.3151 26381.0
 08 10 2016  13 13  -15.5016 26167.0   3359.4   7.3157 26381.8
 08 10 2016  13 14  -15.5035 26166.9   3358.1   7.3130 26381.5
 08 10 2016  13 15  -15.5040 26167.2   3357.4   7.3114 26381.7
 08 10 2016  13 16  -15.5041 26167.7   3357.1   7.3106 26382.1
 08 10 2016  13 17  -15.5039 26168.3   3357.1   7.3105 26382.8
 08 10 2016  13 18  -15.5040 26169.2   3355.7   7.3072 26383.5
 08 10 2016  13 19  -15.5045 26169.3   3356.3   7.3084 26383.7
 08 10 2016  13 20  -15.5048 26169.8   3353.5   7.3024 26383.7
 08 10 2016  13 21  -15.5051 26169.7   3353.2   7.3017 26383.7
 08 10 2016  13 22  -15.5057 26169.9   3353.3   7.3019 26383.9
 08 10 2016  13 23  -15.5048 26170.8   3353.6   7.3022 26384.8
 08 10 2016  13 24  -15.5062 26170.9   3352.1   7.2990 26384.7
 08 10 2016  13 25  -15.5057 26171.1   3353.0   7.3009 26385.0
 08 10 2016  13 26  -15.5062 26171.6   3350.6   7.2956 26385.2
 08 10 2016  13 27  -15.5065 26171.8   3351.8   7.2981 26385.5
 08 10 2016  13 28  -15.5074 26171.7   3350.1   7.2945 26385.3
 08 10 2016  13 29  -15.5081 26171.1   3349.4   7.2930 26384.6
 08 10 2016  13 30  -15.5084 26170.8   3349.6   7.2936 26384.3
 08 10 2016  13 31  -15.5090 26170.5   3348.4   7.2912 26383.8
 08 10 2016  13 32  -15.5088 26170.3   3349.2   7.2930 26383.8
 08 10 2016  13 33  -15.5077 26170.8   3349.1   7.2925 26384.2
 08 10 2016  13 34  -15.5084 26171.1   3348.6   7.2915 26384.5
 08 10 2016  13 35  -15.5085 26171.5   3347.2   7.2883 26384.6
 08 10 2016  13 36  -15.5094 26171.5   3347.7   7.2894 26384.7
 08 10 2016  13 37  -15.5092 26171.9   3349.1   7.2921 26385.3
 08 10 2016  13 38  -15.5101 26172.3   3346.8   7.2872 26385.5
 08 10 2016  13 39  -15.5109 26172.4   3346.7   7.2869 26385.5
 08 10 2016  13 40  -15.5115 26172.4   3346.5   7.2865 26385.5
 08 10 2016  13 41  -15.5110 26172.5   3346.8   7.2870 26385.6
 08 10 2016  13 42  -15.5112 26172.5   3347.2   7.2881 26385.7
 08 10 2016  13 43  -15.5119 26172.2   3346.4   7.2864 26385.3
 08 10 2016  13 44  -15.5117 26172.5   3346.8   7.2872 26385.7
 08 10 2016  13 45  -15.5117 26173.3   3345.8   7.2848 26386.3
 08 10 2016  13 46  -15.5120 26174.0   3346.5   7.2861 26387.1
 08 10 2016  13 47  -15.5106 26174.9   3346.4   7.2856 26388.0
 08 10 2016  13 48  -15.5104 26175.6   3346.8   7.2864 26388.7
 08 10 2016  13 49  -15.5110 26176.1   3345.9   7.2841 26389.0
 08 10 2016  13 50  -15.5106 26176.9   3345.7   7.2835 26389.8
 08 10 2016  13 51  -15.5113 26177.3   3346.8   7.2858 26390.4
 08 10 2016  13 52  -15.5108 26178.2   3346.4   7.2846 26391.2
 08 10 2016  13 53  -15.5122 26178.6   3344.8   7.2812 26391.4
 08 10 2016  13 54  -15.5131 26178.6   3344.8   7.2812 26391.5
 08 10 2016  13 55  -15.5128 26178.8   3344.6   7.2807 26391.6
 08 10 2016  13 56  -15.5123 26179.0   3344.2   7.2797 26391.7
 08 10 2016  13 57  -15.5136 26179.1   3344.3   7.2799 26391.9
 08 10 2016  13 58  -15.5143 26179.6   3343.1   7.2772 26392.2
 08 10 2016  13 59  -15.5137 26180.1   3343.6   7.2780 26392.8
 08 10 2016  14 00  -15.5134 26180.5   3343.1   7.2769 26393.0
 08 10 2016  14 01  -15.5132 26180.8   3343.9   7.2787 26393.5
 08 10 2016  14 02  -15.5141 26180.8   3343.5   7.2778 26393.4
 08 10 2016  14 03  -15.5145 26181.1   3343.2   7.2769 26393.7
 08 10 2016  14 04  -15.5137 26181.6   3343.7   7.2780 26394.3
 08 10 2016  14 05  -15.5137 26182.3   3342.5   7.2751 26394.8
 08 10 2016  14 06  -15.5136 26182.6   3343.3   7.2769 26395.2
 08 10 2016  14 07  -15.5139 26182.9   3342.7   7.2755 26395.4
 08 10 2016  14 08  -15.5150 26183.2   3342.7   7.2754 26395.7
 08 10 2016  14 09  -15.5143 26183.8   3341.5   7.2726 26396.2
 08 10 2016  14 10  -15.5145 26183.8   3343.3   7.2765 26396.4
 08 10 2016  14 11  -15.5136 26184.0   3343.2   7.2762 26396.6
 08 10 2016  14 12  -15.5147 26183.9   3342.3   7.2742 26396.3
 08 10 2016  14 13  -15.5140 26184.1   3341.5   7.2726 26396.4
 08 10 2016  14 14  -15.5137 26184.2   3341.9   7.2734 26396.6
 08 10 2016  14 15  -15.5132 26184.3   3341.7   7.2730 26396.7
 08 10 2016  14 16  -15.5123 26184.9   3342.0   7.2734 26397.3
 08 10 2016  14 17  -15.5131 26184.5   3343.5   7.2767 26397.2
 08 10 2016  14 18  -15.5125 26185.1   3342.4   7.2742 26397.5
 08 10 2016  14 19  -15.5125 26185.2   3342.5   7.2743 26397.7
 08 10 2016  14 20  -15.5118 26185.7   3341.6   7.2723 26398.1
 08 10 2016  14 21  -15.5121 26185.4   3343.6   7.2767 26398.0
 08 10 2016  14 22  -15.5122 26185.6   3342.1   7.2733 26398.0
 08 10 2016  14 23  -15.5114 26185.9   3342.7   7.2747 26398.4
 08 10 2016  14 24  -15.5112 26186.1   3342.7   7.2746 26398.6
 08 10 2016  14 25  -15.5105 26186.3   3343.1   7.2754 26398.8
 08 10 2016  14 26  -15.5111 26185.8   3342.6   7.2744 26398.2
 08 10 2016  14 27  -15.5101 26186.0   3342.4   7.2739 26398.4
 08 10 2016  14 28  -15.5090 26186.1   3342.6   7.2743 26398.6
 08 10 2016  14 29  -15.5084 26186.4   3343.4   7.2761 26399.0
 08 10 2016  14 30  -15.5086 26186.9   3343.8   7.2768 26399.5
 08 10 2016  14 31  -15.5079 26187.5   3344.1   7.2771 26400.1
 08 10 2016  14 32  -15.5070 26188.3   3343.6   7.2759 26400.9
 08 10 2016  14 33  -15.5071 26188.6   3344.2   7.2771 26401.3
 08 10 2016  14 34  -15.5060 26189.3   3343.9   7.2762 26401.9
 08 10 2016  14 35  -15.5068 26189.8   3342.7   7.2735 26402.3
 08 10 2016  14 36  -15.5055 26190.5   3343.2   7.2743 26403.0
 08 10 2016  14 37  -15.5061 26190.4   3343.2   7.2744 26402.9
 08 10 2016  14 38  -15.5052 26190.8   3342.5   7.2729 26403.3
 08 10 2016  14 39  -15.5032 26191.6   3342.4   7.2724 26404.0
 08 10 2016  14 40  -15.5026 26191.7   3342.4   7.2723 26404.1
 08 10 2016  14 41  -15.5022 26191.7   3342.1   7.2716 26404.1
 08 10 2016  14 42  -15.5031 26191.1   3341.9   7.2714 26403.4
 08 10 2016  14 43  -15.5030 26191.0   3341.7   7.2711 26403.3
 08 10 2016  14 44  -15.5030 26190.9   3340.2   7.2679 26403.1
 08 10 2016  14 45  -15.5021 26191.1   3341.0   7.2694 26403.3
 08 10 2016  14 46  -15.5025 26190.8   3343.0   7.2739 26403.3
 08 10 2016  14 47  -15.5022 26190.9   3341.9   7.2714 26403.3
 08 10 2016  14 48  -15.5022 26190.9   3342.6   7.2731 26403.4
 08 10 2016  14 49  -15.5015 26191.1   3341.5   7.2706 26403.4
 08 10 2016  14 50  -15.5024 26190.5   3342.3   7.2724 26402.9
 08 10 2016  14 51  -15.5006 26190.9   3341.9   7.2716 26403.3
 08 10 2016  14 52  -15.5013 26191.0   3341.2   7.2699 26403.2
 08 10 2016  14 53  -15.5005 26191.1   3342.6   7.2729 26403.5
 08 10 2016  14 54  -15.5003 26191.5   3342.4   7.2725 26403.9
 08 10 2016  14 55  -15.4986 26192.3   3343.4   7.2744 26404.8
 08 10 2016  14 56  -15.4984 26192.9   3342.6   7.2724 26405.3
 08 10 2016  14 57  -15.4975 26193.3   3343.8   7.2749 26405.9
 08 10 2016  14 58  -15.4975 26193.6   3341.6   7.2701 26405.9
 08 10 2016  14 59  -15.4986 26193.2   3341.3   7.2695 26405.4
 08 10 2016  15 00  -15.4981 26192.9   3340.8   7.2685 26405.1
 08 10 2016  15 01  -15.4975 26192.5   3342.2   7.2718 26404.9
 08 10 2016  15 02  -15.4976 26192.5   3340.1   7.2671 26404.6
 08 10 2016  15 03  -15.4970 26192.4   3340.1   7.2673 26404.5
 08 10 2016  15 04  -15.4966 26192.3   3341.2   7.2697 26404.6
 08 10 2016  15 05  -15.4968 26192.0   3342.2   7.2719 26404.4
 08 10 2016  15 06  -15.4971 26191.9   3340.9   7.2690 26404.1
 08 10 2016  15 07  -15.4967 26191.7   3342.2   7.2719 26404.0
 08 10 2016  15 08  -15.4958 26192.0   3341.3   7.2700 26404.3
 08 10 2016  15 09  -15.4949 26192.3   3341.9   7.2712 26404.7
 08 10 2016  15 10  -15.4953 26192.5   3341.2   7.2696 26404.7
 08 10 2016  15 11  -15.4944 26192.8   3341.5   7.2703 26405.1
 08 10 2016  15 12  -15.4958 26192.6   3341.8   7.2709 26405.0
 08 10 2016  15 13  -15.4963 26192.8   3341.2   7.2696 26405.0
 08 10 2016  15 14  -15.4953 26192.8   3341.5   7.2701 26405.1
 08 10 2016  15 15  -15.4952 26192.8   3340.2   7.2673 26404.9
 08 10 2016  15 16  -15.4963 26191.8   3341.9   7.2712 26404.1
 08 10 2016  15 17  -15.4969 26191.4   3340.7   7.2688 26403.6
 08 10 2016  15 18  -15.4953 26191.4   3342.0   7.2716 26403.8
 08 10 2016  15 19  -15.4950 26191.3   3342.9   7.2735 26403.8
 08 10 2016  15 20  -15.4953 26191.3   3342.6   7.2730 26403.7
 08 10 2016  15 21  -15.4952 26191.6   3342.4   7.2723 26404.0
 08 10 2016  15 22  -15.4944 26192.1   3341.7   7.2708 26404.4
 08 10 2016  15 23  -15.4947 26191.8   3343.6   7.2750 26404.4
 08 10 2016  15 24  -15.4953 26191.5   3343.9   7.2756 26404.1
 08 10 2016  15 25  -15.4960 26191.5   3341.5   7.2705 26403.8
 08 10 2016  15 26  -15.4959 26191.3   3341.5   7.2705 26403.6
 08 10 2016  15 27  -15.4970 26191.6   3342.1   7.2718 26404.0
 08 10 2016  15 28  -15.4968 26191.0   3343.9   7.2759 26403.6
 08 10 2016  15 29  -15.4962 26191.3   3342.5   7.2727 26403.8
 08 10 2016  15 30  -15.4970 26191.1   3343.0   7.2739 26403.6
 08 10 2016  15 31  -15.4965 26191.0   3343.9   7.2759 26403.6
 08 10 2016  15 32  -15.4961 26191.0   3345.6   7.2795 26403.8
 08 10 2016  15 33  -15.4965 26191.2   3344.0   7.2760 26403.8
 08 10 2016  15 34  -15.4962 26191.0   3344.7   7.2775 26403.7
 08 10 2016  15 35  -15.4972 26190.8   3344.4   7.2769 26403.4
 08 10 2016  15 36  -15.4965 26190.8   3343.4   7.2749 26403.4
 08 10 2016  15 37  -15.4954 26191.0   3344.8   7.2778 26403.7
 08 10 2016  15 38  -15.4963 26190.4   3344.8   7.2779 26403.2
 08 10 2016  15 39  -15.4974 26190.0   3345.3   7.2791 26402.8
 08 10 2016  15 40  -15.4966 26189.7   3345.8   7.2802 26402.6
 08 10 2016  15 41  -15.4958 26190.0   3346.7   7.2821 26403.0
 08 10 2016  15 42  -15.4969 26190.0   3346.4   7.2814 26402.9
 08 10 2016  15 43  -15.4963 26190.2   3345.6   7.2796 26403.1
 08 10 2016  15 44  -15.4954 26190.1   3346.8   7.2822 26403.1
 08 10 2016  15 45  -15.4958 26190.1   3346.5   7.2817 26403.1
 08 10 2016  15 46  -15.4957 26190.4   3346.1   7.2807 26403.3
 08 10 2016  15 47  -15.4952 26190.8   3346.5   7.2813 26403.7
 08 10 2016  15 48  -15.4949 26190.8   3346.2   7.2807 26403.7
 08 10 2016  15 49  -15.4940 26190.7   3346.6   7.2817 26403.7
 08 10 2016  15 50  -15.4947 26190.8   3347.7   7.2840 26403.9
 08 10 2016  15 51  -15.4951 26191.3   3346.3   7.2808 26404.1
 08 10 2016  15 52  -15.4944 26191.9   3346.7   7.2817 26404.9
 08 10 2016  15 53  -15.4938 26192.4   3347.2   7.2825 26405.4
 08 10 2016  15 54  -15.4941 26192.9   3347.2   7.2824 26405.9
 08 10 2016  15 55  -15.4943 26192.9   3346.9   7.2818 26405.8
 08 10 2016  15 56  -15.4937 26193.3   3347.1   7.2821 26406.3
 08 10 2016  15 57  -15.4943 26193.6   3345.6   7.2787 26406.4
 08 10 2016  15 58  -15.4948 26193.4   3344.8   7.2771 26406.1
 08 10 2016  15 59  -15.4956 26193.0   3345.1   7.2778 26405.8
 08 10 2016  16 00  -15.4948 26193.0   3346.1   7.2800 26405.9
 08 10 2016  16 01  -15.4961 26192.6   3344.5   7.2767 26405.3
 08 10 2016  16 02  -15.4964 26192.1   3345.3   7.2785 26404.9
 08 10 2016  16 03  -15.4958 26191.9   3345.6   7.2792 26404.7
 08 10 2016  16 04  -15.4956 26191.8   3345.8   7.2796 26404.6
 08 10 2016  16 05  -15.4965 26191.5   3344.6   7.2771 26404.2
 08 10 2016  16 06  -15.4972 26190.8   3345.1   7.2785 26403.5
 08 10 2016  16 07  -15.4959 26190.2   3345.7   7.2799 26403.1
 08 10 2016  16 08  -15.4966 26189.0   3346.6   7.2821 26402.0
 08 10 2016  16 09  -15.4971 26188.6   3344.8   7.2784 26401.3
 08 10 2016  16 10  -15.4961 26187.9   3345.4   7.2799 26400.7
 08 10 2016  16 11  -15.4977 26186.8   3346.2   7.2818 26399.8
 08 10 2016  16 12  -15.4973 26186.9   3345.2   7.2798 26399.7
 08 10 2016  16 13  -15.4976 26186.2   3347.5   7.2848 26399.3
 08 10 2016  16 14  -15.4968 26185.4   3347.9   7.2859 26398.6
 08 10 2016  16 15  -15.4976 26184.2   3347.6   7.2857 26397.3
 08 10 2016  16 16  -15.4978 26183.5   3348.0   7.2867 26396.7
 08 10 2016  16 17  -15.4964 26183.3   3347.5   7.2856 26396.4
 08 10 2016  16 18  -15.4969 26182.1   3348.9   7.2889 26395.4
 08 10 2016  16 19  -15.4979 26181.1   3349.1   7.2897 26394.5
 08 10 2016  16 20  -15.4979 26180.6   3348.8   7.2893 26393.9
 08 10 2016  16 21  -15.4970 26180.2   3350.4   7.2929 26393.7
 08 10 2016  16 22  -15.4976 26179.7   3349.6   7.2912 26393.2
 08 10 2016  16 23  -15.4979 26179.6   3350.7   7.2935 26393.1
 08 10 2016  16 24  -15.4981 26179.4   3350.1   7.2924 26392.9
 08 10 2016  16 25  -15.4984 26178.9   3351.3   7.2951 26392.5
 08 10 2016  16 26  -15.4995 26178.7   3350.4   7.2931 26392.2
 08 10 2016  16 27  -15.4990 26178.4   3351.9   7.2964 26392.1
 08 10 2016  16 28  -15.4994 26177.6   3351.9   7.2966 26391.4
 08 10 2016  16 29  -15.5000 26177.0   3351.5   7.2959 26390.6
 08 10 2016  16 30  -15.5013 26176.1   3351.3   7.2958 26389.7
 08 10 2016  16 31  -15.5006 26175.3   3352.3   7.2982 26389.1
 08 10 2016  16 32  -15.5018 26174.9   3350.7   7.2949 26388.5
 08 10 2016  16 33  -15.5013 26174.9   3351.4   7.2963 26388.6
 08 10 2016  16 34  -15.5025 26174.4   3351.3   7.2963 26388.1
 08 10 2016  16 35  -15.5030 26173.6   3352.4   7.2990 26387.4
 08 10 2016  16 36  -15.5045 26173.1   3351.5   7.2972 26386.8
 08 10 2016  16 37  -15.5050 26172.2   3352.4   7.2993 26386.1
 08 10 2016  16 38  -15.5048 26172.1   3353.9   7.3025 26386.1
 08 10 2016  16 39  -15.5060 26172.1   3352.8   7.3001 26385.9
 08 10 2016  16 40  -15.5054 26172.0   3354.6   7.3040 26386.1
 08 10 2016  16 41  -15.5059 26171.6   3353.8   7.3025 26385.6
 08 10 2016  16 42  -15.5062 26171.2   3354.0   7.3029 26385.2
 08 10 2016  16 43  -15.5064 26170.9   3354.0   7.3031 26385.0
 08 10 2016  16 44  -15.5066 26170.4   3354.9   7.3053 26384.5
 08 10 2016  16 45  -15.5059 26170.0   3355.8   7.3072 26384.3
 08 10 2016  16 46  -15.5074 26169.8   3354.4   7.3042 26383.9
 08 10 2016  16 47  -15.5065 26169.4   3354.0   7.3035 26383.4
 08 10 2016  16 48  -15.5067 26169.6   3354.4   7.3043 26383.7
 08 10 2016  16 49  -15.5082 26169.3   3355.6   7.3069 26383.5
 08 10 2016  16 50  -15.5076 26168.6   3356.1   7.3083 26382.9
 08 10 2016  16 51  -15.5071 26168.8   3356.3   7.3085 26383.1
 08 10 2016  16 52  -15.5082 26168.8   3355.3   7.3064 26383.1
 08 10 2016  16 53  -15.5089 26168.7   3355.1   7.3060 26382.9
 08 10 2016  16 54  -15.5076 26169.3   3355.5   7.3067 26383.5
 08 10 2016  16 55  -15.5079 26168.6   3354.5   7.3048 26382.7
 08 10 2016  16 56  -15.5093 26168.1   3354.0   7.3038 26382.2
 08 10 2016  16 57  -15.5095 26167.5   3354.6   7.3053 26381.7
 08 10 2016  16 58  -15.5083 26167.5   3354.5   7.3051 26381.6
 08 10 2016  16 59  -15.5096 26166.3   3355.4   7.3074 26380.6
 08 10 2016  17 00  -15.5092 26165.6   3355.4   7.3076 26379.9
 08 10 2016  17 01  -15.5093 26165.2   3355.6   7.3082 26379.5
 08 10 2016  17 02  -15.5085 26164.9   3356.6   7.3103 26379.3
 08 10 2016  17 03  -15.5091 26164.8   3354.6   7.3060 26378.9
 08 10 2016  17 04  -15.5083 26164.7   3354.4   7.3056 26378.8
 08 10 2016  17 05  -15.5094 26163.7   3354.6   7.3063 26377.9
 08 10 2016  17 06  -15.5085 26162.9   3354.8   7.3070 26377.1
 08 10 2016  17 07  -15.5088 26162.0   3355.7   7.3093 26376.3
 08 10 2016  17 08  -15.5094 26161.9   3355.5   7.3089 26376.2
 08 10 2016  17 09  -15.5091 26162.0   3355.8   7.3095 26376.3
 08 10 2016  17 10  -15.5082 26161.6   3355.9   7.3097 26376.0
 08 10 2016  17 11  -15.5084 26161.4   3356.2   7.3104 26375.8
 08 10 2016  17 12  -15.5081 26161.9   3355.0   7.3077 26376.1
 08 10 2016  17 13  -15.5070 26162.0   3356.1   7.3101 26376.4
 08 10 2016  17 14  -15.5081 26161.8   3356.5   7.3110 26376.3
 08 10 2016  17 15  -15.5075 26161.9   3355.1   7.3079 26376.2
 08 10 2016  17 16  -15.5070 26161.9   3356.3   7.3104 26376.3
 08 10 2016  17 17  -15.5080 26161.7   3355.8   7.3095 26376.1
 08 10 2016  17 18  -15.5088 26161.9   3356.9   7.3119 26376.3
 08 10 2016  17 19  -15.5093 26161.5   3356.1   7.3102 26375.9
 08 10 2016  17 20  -15.5101 26161.2   3354.1   7.3059 26375.3
 08 10 2016  17 21  -15.5089 26161.4   3355.0   7.3079 26375.7
 08 10 2016  17 22  -15.5085 26161.2   3353.7   7.3052 26375.3
 08 10 2016  17 23  -15.5100 26160.7   3354.0   7.3059 26374.8
 08 10 2016  17 24  -15.5088 26160.4   3353.1   7.3040 26374.4
 08 10 2016  17 25  -15.5093 26159.3   3355.2   7.3089 26373.6
 08 10 2016  17 26  -15.5095 26158.9   3354.7   7.3079 26373.1
 08 10 2016  17 27  -15.5092 26158.9   3353.8   7.3060 26373.0
 08 10 2016  17 28  -15.5090 26159.3   3353.2   7.3046 26373.4
 08 10 2016  17 29  -15.5102 26159.0   3354.3   7.3071 26373.2
 08 10 2016  17 30  -15.5110 26158.4   3352.6   7.3035 26372.4
 08 10 2016  17 31  -15.5103 26158.1   3353.2   7.3049 26372.1
 08 10 2016  17 32  -15.5109 26157.2   3354.5   7.3079 26371.4
 08 10 2016  17 33  -15.5111 26156.6   3353.7   7.3063 26370.7
 08 10 2016  17 34  -15.5111 26156.1   3353.0   7.3050 26370.2
 08 10 2016  17 35  -15.5107 26155.6   3354.8   7.3090 26369.9
 08 10 2016  17 36  -15.5107 26155.4   3355.4   7.3104 26369.8
 08 10 2016  17 37  -15.5110 26155.5   3354.6   7.3086 26369.8
 08 10 2016  17 38  -15.5119 26155.5   3354.8   7.3090 26369.8
 08 10 2016  17 39  -15.5135 26155.0   3355.0   7.3096 26369.3
 08 10 2016  17 40  -15.5146 26154.1   3354.0   7.3076 26368.3
 08 10 2016  17 41  -15.5142 26153.3   3356.4   7.3130 26367.8
 08 10 2016  17 42  -15.5143 26153.3   3355.4   7.3109 26367.7
 08 10 2016  17 43  -15.5144 26152.9   3356.4   7.3133 26367.4
 08 10 2016  17 44  -15.5156 26151.9   3356.9   7.3146 26366.5
 08 10 2016  17 45  -15.5148 26151.5   3357.4   7.3157 26366.1
 08 10 2016  17 46  -15.5139 26150.7   3358.0   7.3173 26365.5
 08 10 2016  17 47  -15.5140 26150.0   3357.5   7.3164 26364.7
 08 10 2016  17 48  -15.5157 26149.6   3357.4   7.3162 26364.2
 08 10 2016  17 49  -15.5169 26148.8   3357.0   7.3157 26363.4
 08 10 2016  17 50  -15.5162 26148.9   3356.9   7.3153 26363.4
 08 10 2016  17 51  -15.5161 26148.4   3356.6   7.3149 26362.9
 08 10 2016  17 52  -15.5177 26147.3   3357.3   7.3167 26362.0
 08 10 2016  17 53  -15.5168 26147.0   3357.2   7.3166 26361.6
 08 10 2016  17 54  -15.5177 26146.1   3356.9   7.3162 26360.7
 08 10 2016  17 55  -15.5180 26145.7   3357.6   7.3177 26360.4
 08 10 2016  17 56  -15.5178 26145.6   3360.3   7.3237 26360.7
 08 10 2016  17 57  -15.5181 26145.0   3359.2   7.3215 26359.9
 08 10 2016  17 58  -15.5170 26144.1   3360.0   7.3235 26359.1
 08 10 2016  17 59  -15.5182 26143.3   3359.3   7.3222 26358.3
 08 10 2016  18 00  -15.5184 26142.5   3359.2   7.3222 26357.4
 08 10 2016  18 01  -15.5183 26142.8   3359.6   7.3230 26357.8
 08 10 2016  18 02  -15.5166 26143.6   3362.0   7.3278 26358.9
 08 10 2016  18 03  -15.5168 26143.8   3362.5   7.3289 26359.2
 08 10 2016  18 04  -15.5187 26143.7   3361.8   7.3273 26358.9
 08 10 2016  18 05  -15.5199 26143.7   3361.3   7.3263 26358.9
 08 10 2016  18 06  -15.5195 26143.0   3363.9   7.3320 26358.6
 08 10 2016  18 07  -15.5195 26142.9   3362.4   7.3290 26358.3
 08 10 2016  18 08  -15.5206 26141.6   3363.1   7.3308 26357.1
 08 10 2016  18 09  -15.5217 26141.1   3361.8   7.3281 26356.4
 08 10 2016  18 10  -15.5214 26140.4   3364.2   7.3335 26356.0
 08 10 2016  18 11  -15.5197 26140.6   3364.8   7.3349 26356.2
 08 10 2016  18 12  -15.5201 26140.4   3365.5   7.3364 26356.1
 08 10 2016  18 13  -15.5215 26140.1   3365.5   7.3364 26355.9
 08 10 2016  18 14  -15.5217 26139.4   3365.9   7.3374 26355.3
 08 10 2016  18 15  -15.5219 26138.7   3365.1   7.3359 26354.4
 08 10 2016  18 16  -15.5223 26138.2   3365.6   7.3372 26354.0
 08 10 2016  18 17  -15.5233 26137.4   3366.3   7.3389 26353.3
 08 10 2016  18 18  -15.5233 26137.3   3366.9   7.3402 26353.3
 08 10 2016  18 19  -15.5227 26137.3   3367.6   7.3417 26353.4
 08 10 2016  18 20  -15.5239 26136.6   3367.5   7.3417 26352.7
 08 10 2016  18 21  -15.5233 26136.5   3368.5   7.3439 26352.6
 08 10 2016  18 22  -15.5233 26136.1   3368.8   7.3447 26352.3
 08 10 2016  18 23  -15.5237 26136.0   3369.2   7.3454 26352.2
 08 10 2016  18 24  -15.5242 26136.0   3369.3   7.3458 26352.3
 08 10 2016  18 25  -15.5245 26135.7   3368.8   7.3448 26352.0
 08 10 2016  18 26  -15.5240 26135.9   3370.0   7.3474 26352.3
 08 10 2016  18 27  -15.5247 26135.7   3370.0   7.3473 26352.1
 08 10 2016  18 28  -15.5237 26135.3   3371.9   7.3516 26351.9
 08 10 2016  18 29  -15.5242 26135.0   3370.7   7.3490 26351.5
 08 10 2016  18 30  -15.5234 26135.1   3370.8   7.3492 26351.6
 08 10 2016  18 31  -15.5236 26134.5   3372.8   7.3537 26351.2
 08 10 2016  18 32  -15.5234 26134.5   3371.9   7.3518 26351.2
 08 10 2016  18 33  -15.5237 26134.2   3372.6   7.3534 26350.9
 08 10 2016  18 34  -15.5233 26134.1   3372.6   7.3533 26350.8
 08 10 2016  18 35  -15.5235 26134.1   3371.5   7.3509 26350.7
 08 10 2016  18 36  -15.5236 26133.7   3373.4   7.3551 26350.5
 08 10 2016  18 37  -15.5243 26133.3   3373.3   7.3551 26350.1
 08 10 2016  18 38  -15.5221 26133.7   3373.3   7.3551 26350.5
 08 10 2016  18 39  -15.5220 26133.6   3374.3   7.3573 26350.6
 08 10 2016  18 40  -15.5235 26133.1   3375.4   7.3597 26350.2
 08 10 2016  18 41  -15.5234 26133.1   3375.7   7.3604 26350.3
 08 10 2016  18 42  -15.5230 26133.3   3374.6   7.3579 26350.3
 08 10 2016  18 43  -15.5232 26133.4   3373.6   7.3558 26350.3
 08 10 2016  18 44  -15.5222 26133.1   3374.6   7.3581 26350.1
 08 10 2016  18 45  -15.5233 26132.8   3373.5   7.3558 26349.6
 08 10 2016  18 46  -15.5231 26132.4   3374.1   7.3571 26349.3
 08 10 2016  18 47  -15.5224 26132.0   3376.3   7.3620 26349.3
 08 10 2016  18 48  -15.5216 26132.2   3374.9   7.3588 26349.3
 08 10 2016  18 49  -15.5223 26131.6   3375.9   7.3611 26348.8
 08 10 2016  18 50  -15.5227 26131.6   3377.3   7.3642 26348.9
 08 10 2016  18 51  -15.5230 26131.8   3376.7   7.3629 26349.1
 08 10 2016  18 52  -15.5228 26132.0   3375.8   7.3608 26349.1
 08 10 2016  18 53  -15.5223 26132.4   3375.8   7.3608 26349.6
 08 10 2016  18 54  -15.5220 26132.8   3376.1   7.3612 26350.0
 08 10 2016  18 55  -15.5211 26132.8   3376.9   7.3630 26350.1
 08 10 2016  18 56  -15.5212 26132.2   3378.2   7.3659 26349.7
 08 10 2016  18 57  -15.5218 26131.9   3378.3   7.3663 26349.4
 08 10 2016  18 58  -15.5212 26132.1   3378.3   7.3663 26349.6
 08 10 2016  18 59  -15.5220 26131.7   3379.0   7.3679 26349.2
 08 10 2016  19 00  -15.5207 26131.7   3379.9   7.3698 26349.4
 08 10 2016  19 01  -15.5213 26131.6   3379.0   7.3679 26349.1
 08 10 2016  19 02  -15.5217 26131.5   3378.2   7.3662 26348.9
 08 10 2016  19 03  -15.5208 26131.5   3378.8   7.3675 26349.1
 08 10 2016  19 04  -15.5213 26131.5   3378.9   7.3677 26349.0
 08 10 2016  19 05  -15.5200 26131.8   3379.2   7.3683 26349.4
 08 10 2016  19 06  -15.5213 26131.5   3380.0   7.3701 26349.2
 08 10 2016  19 07  -15.5207 26131.7   3381.4   7.3730 26349.5
 08 10 2016  19 08  -15.5212 26131.6   3379.4   7.3688 26349.2
 08 10 2016  19 09  -15.5217 26131.4   3379.0   7.3680 26349.0
 08 10 2016  19 10  -15.5211 26131.0   3381.2   7.3728 26348.8
 08 10 2016  19 11  -15.5216 26130.8   3378.6   7.3673 26348.3
 08 10 2016  19 12  -15.5218 26130.5   3379.5   7.3692 26348.2
 08 10 2016  19 13  -15.5228 26129.7   3381.1   7.3728 26347.5
 08 10 2016  19 14  -15.5226 26129.6   3379.7   7.3699 26347.3
 08 10 2016  19 15  -15.5216 26129.4   3381.8   7.3746 26347.3
 08 10 2016  19 16  -15.5223 26128.7   3381.7   7.3745 26346.6
 08 10 2016  19 17  -15.5215 26128.7   3382.2   7.3755 26346.7
 08 10 2016  19 18  -15.5228 26127.8   3381.5   7.3744 26345.7
 08 10 2016  19 19  -15.5228 26127.8   3381.0   7.3733 26345.7
 08 10 2016  19 20  -15.5231 26127.5   3381.4   7.3743 26345.4
 08 10 2016  19 21  -15.5232 26126.9   3381.6   7.3748 26344.8
 08 10 2016  19 22  -15.5220 26127.4   3381.1   7.3736 26345.3
 08 10 2016  19 23  -15.5215 26127.1   3383.6   7.3790 26345.3
 08 10 2016  19 24  -15.5220 26127.1   3382.2   7.3760 26345.1
 08 10 2016  19 25  -15.5205 26127.4   3384.0   7.3799 26345.7
 08 10 2016  19 26  -15.5196 26127.8   3385.3   7.3826 26346.2
 08 10 2016  19 27  -15.5189 26128.1   3384.2   7.3801 26346.3
 08 10 2016  19 28  -15.5202 26127.9   3382.8   7.3771 26346.0
 08 10 2016  19 29  -15.5195 26127.7   3384.1   7.3800 26346.0
 08 10 2016  19 30  -15.5194 26128.0   3382.9   7.3774 26346.1
 08 10 2016  19 31  -15.5201 26127.7   3383.3   7.3781 26345.9
 08 10 2016  19 32  -15.5201 26127.3   3383.6   7.3790 26345.5
 08 10 2016  19 33  -15.5200 26127.2   3383.1   7.3780 26345.3
 08 10 2016  19 34  -15.5190 26127.1   3384.3   7.3805 26345.4
 08 10 2016  19 35  -15.5194 26127.3   3383.2   7.3782 26345.4
 08 10 2016  19 36  -15.5182 26127.4   3384.2   7.3802 26345.6
 08 10 2016  19 37  -15.5189 26126.9   3384.8   7.3816 26345.3
 08 10 2016  19 38  -15.5192 26126.5   3385.1   7.3824 26344.9
 08 10 2016  19 39  -15.5180 26126.7   3385.6   7.3835 26345.2
 08 10 2016  19 40  -15.5196 26126.2   3384.9   7.3820 26344.6
 08 10 2016  19 41  -15.5186 26126.5   3385.3   7.3829 26344.9
 08 10 2016  19 42  -15.5193 26126.0   3385.1   7.3825 26344.4
 08 10 2016  19 43  -15.5178 26126.2   3385.5   7.3833 26344.7
 08 10 2016  19 44  -15.5188 26125.7   3385.5   7.3836 26344.1
 08 10 2016  19 45  -15.5187 26125.7   3384.5   7.3814 26344.0
 08 10 2016  19 46  -15.5179 26125.5   3386.4   7.3856 26344.1
 08 10 2016  19 47  -15.5179 26125.2   3387.0   7.3869 26343.9
 08 10 2016  19 48  -15.5170 26125.3   3387.1   7.3870 26343.9
 08 10 2016  19 49  -15.5175 26125.2   3386.2   7.3852 26343.7
 08 10 2016  19 50  -15.5170 26125.1   3387.2   7.3875 26343.8
 08 10 2016  19 51  -15.5167 26125.1   3387.4   7.3878 26343.8
 08 10 2016  19 52  -15.5165 26124.9   3388.1   7.3894 26343.7
 08 10 2016  19 53  -15.5169 26124.6   3388.8   7.3910 26343.5
 08 10 2016  19 54  -15.5162 26124.8   3388.3   7.3897 26343.6
 08 10 2016  19 55  -15.5163 26124.4   3389.5   7.3925 26343.4
 08 10 2016  19 56  -15.5148 26124.5   3389.4   7.3922 26343.4
 08 10 2016  19 57  -15.5151 26124.3   3388.0   7.3893 26343.1
 08 10 2016  19 58  -15.5152 26124.0   3388.6   7.3906 26342.9
 08 10 2016  19 59  -15.5151 26124.1   3387.4   7.3881 26342.8
 08 10 2016  20 00  -15.5142 26123.7   3389.8   7.3933 26342.7
 08 10 2016  20 01  -15.5148 26123.8   3387.7   7.3888 26342.5
 08 10 2016  20 02  -15.5140 26123.6   3389.1   7.3918 26342.5
 08 10 2016  20 03  -15.5138 26123.6   3388.0   7.3895 26342.3
 08 10 2016  20 04  -15.5130 26123.2   3390.3   7.3946 26342.3
 08 10 2016  20 05  -15.5121 26123.4   3389.5   7.3928 26342.4
 08 10 2016  20 06  -15.5127 26123.2   3389.4   7.3927 26342.2
 08 10 2016  20 07  -15.5128 26123.0   3390.0   7.3939 26342.1
 08 10 2016  20 08  -15.5124 26123.1   3390.5   7.3951 26342.2
 08 10 2016  20 09  -15.5126 26122.9   3390.2   7.3945 26342.0
 08 10 2016  20 10  -15.5120 26123.0   3389.8   7.3935 26342.0
 08 10 2016  20 11  -15.5121 26122.9   3389.3   7.3925 26341.8
 08 10 2016  20 12  -15.5115 26122.7   3390.7   7.3957 26341.8
 08 10 2016  20 13  -15.5117 26122.5   3390.2   7.3945 26341.6
 08 10 2016  20 14  -15.5116 26122.2   3390.3   7.3949 26341.3
 08 10 2016  20 15  -15.5112 26122.2   3390.2   7.3947 26341.3
 08 10 2016  20 16  -15.5109 26122.1   3390.6   7.3955 26341.2
 08 10 2016  20 17  -15.5108 26122.0   3390.8   7.3960 26341.1
 08 10 2016  20 18  -15.5100 26122.1   3391.7   7.3979 26341.3
 08 10 2016  20 19  -15.5102 26122.0   3392.2   7.3990 26341.3
 08 10 2016  20 20  -15.5109 26121.9   3391.0   7.3965 26341.0
 08 10 2016  20 21  -15.5099 26122.0   3391.2   7.3970 26341.2
 08 10 2016  20 22  -15.5100 26121.7   3392.0   7.3987 26341.0
 08 10 2016  20 23  -15.5100 26121.7   3391.5   7.3976 26340.9
 08 10 2016  20 24  -15.5099 26121.7   3391.1   7.3967 26340.9
 08 10 2016  20 25  -15.5091 26121.8   3390.8   7.3961 26341.0
 08 10 2016  20 26  -15.5091 26121.7   3391.2   7.3970 26340.9
 08 10 2016  20 27  -15.5084 26121.6   3392.5   7.3998 26341.0
 08 10 2016  20 28  -15.5093 26121.4   3391.1   7.3968 26340.6
 08 10 2016  20 29  -15.5088 26121.4   3391.5   7.3976 26340.7
 08 10 2016  20 30  -15.5085 26121.2   3392.5   7.4000 26340.6
 08 10 2016  20 31  -15.5091 26121.0   3391.6   7.3979 26340.2
 08 10 2016  20 32  -15.5085 26121.2   3390.8   7.3962 26340.4
 08 10 2016  20 33  -15.5088 26120.9   3392.4   7.3998 26340.2
 08 10 2016  20 34  -15.5086 26121.0   3391.7   7.3983 26340.3
 08 10 2016  20 35  -15.5082 26121.0   3390.7   7.3960 26340.1
 08 10 2016  20 36  -15.5075 26121.0   3392.8   7.4005 26340.4
 08 10 2016  20 37  -15.5077 26120.8   3392.6   7.4003 26340.2
 08 10 2016  20 38  -15.5071 26120.7   3393.1   7.4013 26340.2
 08 10 2016  20 39  -15.5070 26120.7   3393.9   7.4030 26340.2
 08 10 2016  20 40  -15.5070 26120.8   3392.8   7.4008 26340.2
 08 10 2016  20 41  -15.5070 26120.4   3392.6   7.4003 26339.8
 08 10 2016  20 42  -15.5070 26120.5   3392.9   7.4010 26339.9
 08 10 2016  20 43  -15.5072 26120.3   3393.3   7.4019 26339.8
 08 10 2016  20 44  -15.5073 26120.0   3392.4   7.4000 26339.4
 08 10 2016  20 45  -15.5067 26120.2   3393.5   7.4024 26339.7
 08 10 2016  20 46  -15.5058 26120.3   3393.5   7.4022 26339.8
 08 10 2016  20 47  -15.5062 26120.1   3393.0   7.4012 26339.6
 08 10 2016  20 48  -15.5064 26120.1   3392.8   7.4007 26339.5
 08 10 2016  20 49  -15.5054 26120.0   3393.4   7.4022 26339.5
 08 10 2016  20 50  -15.5062 26119.6   3393.1   7.4016 26339.1
 08 10 2016  20 51  -15.5053 26119.3   3394.1   7.4039 26338.9
 08 10 2016  20 52  -15.5052 26119.3   3394.9   7.4056 26339.0
 08 10 2016  20 53  -15.5064 26119.0   3393.3   7.4023 26338.5
 08 10 2016  20 54  -15.5052 26119.2   3392.9   7.4013 26338.6
 08 10 2016  20 55  -15.5045 26119.4   3393.8   7.4031 26339.0
 08 10 2016  20 56  -15.5052 26119.2   3393.5   7.4025 26338.7
 08 10 2016  20 57  -15.5049 26119.1   3393.8   7.4032 26338.7
 08 10 2016  20 58  -15.5042 26119.1   3393.6   7.4029 26338.7
 08 10 2016  20 59  -15.5037 26119.2   3394.0   7.4037 26338.8
 08 10 2016  21 00  -15.5041 26118.7   3394.0   7.4039 26338.3
 08 10 2016  21 01  -15.5039 26118.8   3393.6   7.4029 26338.4
 08 10 2016  21 02  -15.5035 26118.6   3394.3   7.4044 26338.2
 08 10 2016  21 03  -15.5033 26118.6   3393.6   7.4031 26338.1
 08 10 2016  21 04  -15.5033 26118.2   3394.0   7.4040 26337.8
 08 10 2016  21 05  -15.5029 26118.2   3394.3   7.4047 26337.8
 08 10 2016  21 06  -15.5029 26118.2   3394.2   7.4044 26337.8
 08 10 2016  21 07  -15.5029 26117.8   3394.3   7.4048 26337.5
 08 10 2016  21 08  -15.5030 26117.6   3394.0   7.4042 26337.2
 08 10 2016  21 09  -15.5025 26117.7   3394.6   7.4054 26337.4
 08 10 2016  21 10  -15.5028 26117.6   3394.3   7.4048 26337.2
 08 10 2016  21 11  -15.5037 26117.1   3394.4   7.4052 26336.8
 08 10 2016  21 12  -15.5026 26117.5   3394.7   7.4056 26337.1
 08 10 2016  21 13  -15.5025 26117.6   3395.0   7.4063 26337.3
 08 10 2016  21 14  -15.5025 26117.3   3394.7   7.4058 26337.0
 08 10 2016  21 15  -15.5027 26117.0   3394.4   7.4051 26336.7
 08 10 2016  21 16  -15.5027 26117.0   3394.4   7.4052 26336.7
 08 10 2016  21 17  -15.5026 26116.8   3394.3   7.4051 26336.5
 08 10 2016  21 18  -15.5020 26116.8   3395.1   7.4066 26336.6
 08 10 2016  21 19  -15.5022 26116.9   3394.9   7.4063 26336.7
 08 10 2016  21 20  -15.5020 26117.0   3394.7   7.4057 26336.7
 08 10 2016  21 21  -15.5020 26117.1   3394.8   7.4060 26336.8
 08 10 2016  21 22  -15.5019 26117.0   3395.1   7.4067 26336.8
 08 10 2016  21 23  -15.5020 26117.2   3394.5   7.4054 26336.9
 08 10 2016  21 24  -15.5018 26117.2   3395.0   7.4063 26337.0
 08 10 2016  21 25  -15.5019 26117.3   3394.9   7.4061 26337.0
 08 10 2016  21 26  -15.5017 26117.4   3395.0   7.4064 26337.1
 08 10 2016  21 27  -15.5015 26117.6   3395.1   7.4065 26337.4
 08 10 2016  21 28  -15.5016 26117.5   3395.4   7.4072 26337.3
 08 10 2016  21 29  -15.5018 26117.7   3394.8   7.4057 26337.4
 08 10 2016  21 30  -15.5016 26117.9   3394.7   7.4056 26337.6
 08 10 2016  21 31  -15.5011 26118.3   3395.6   7.4074 26338.1
 08 10 2016  21 32  -15.5015 26118.5   3394.8   7.4055 26338.1
 08 10 2016  21 33  -15.5007 26118.6   3396.5   7.4093 26338.5
 08 10 2016  21 34  -15.5012 26118.6   3396.5   7.4093 26338.6
 08 10 2016  21 35  -15.5023 26118.7   3395.4   7.4068 26338.5
 08 10 2016  21 36  -15.5026 26118.9   3394.5   7.4049 26338.5
 08 10 2016  21 37  -15.5018 26119.2   3395.1   7.4061 26339.0
 08 10 2016  21 38  -15.5020 26119.4   3394.7   7.4052 26339.1
 08 10 2016  21 39  -15.5021 26119.6   3394.8   7.4052 26339.3
 08 10 2016  21 40  -15.5021 26119.9   3394.4   7.4043 26339.6
 08 10 2016  21 41  -15.5017 26120.2   3395.4   7.4065 26339.9
 08 10 2016  21 42  -15.5031 26120.0   3394.7   7.4050 26339.7
 08 10 2016  21 43  -15.5017 26120.5   3394.8   7.4050 26340.2
 08 10 2016  21 44  -15.5026 26120.5   3394.1   7.4035 26340.1
 08 10 2016  21 45  -15.5024 26120.5   3394.0   7.4034 26340.1
 08 10 2016  21 46  -15.5021 26120.6   3394.8   7.4051 26340.3
 08 10 2016  21 47  -15.5022 26120.6   3395.7   7.4069 26340.4
 08 10 2016  21 48  -15.5029 26120.9   3394.2   7.4037 26340.5
 08 10 2016  21 49  -15.5033 26120.5   3393.8   7.4028 26340.1
 08 10 2016  21 50  -15.5034 26121.0   3393.6   7.4024 26340.6
 08 10 2016  21 51  -15.5035 26121.1   3394.4   7.4040 26340.8
 08 10 2016  21 52  -15.5036 26121.4   3393.3   7.4016 26340.9
 08 10 2016  21 53  -15.5042 26121.1   3395.0   7.4053 26340.8
 08 10 2016  21 54  -15.5038 26121.2   3394.8   7.4049 26340.9
 08 10 2016  21 55  -15.5046 26121.0   3394.5   7.4043 26340.6
 08 10 2016  21 56  -15.5049 26120.9   3395.0   7.4054 26340.6
 08 10 2016  21 57  -15.5036 26121.4   3394.8   7.4048 26341.1
 08 10 2016  21 58  -15.5052 26121.0   3395.0   7.4054 26340.7
 08 10 2016  21 59  -15.5048 26121.3   3394.8   7.4047 26341.0
 08 10 2016  22 00  -15.5050 26121.4   3394.7   7.4047 26341.0
 08 10 2016  22 01  -15.5038 26121.4   3395.9   7.4071 26341.3
 08 10 2016  22 02  -15.5049 26121.2   3395.1   7.4054 26340.9
 08 10 2016  22 03  -15.5045 26121.4   3395.7   7.4067 26341.1
 08 10 2016  22 04  -15.5050 26121.4   3394.6   7.4043 26341.0
 08 10 2016  22 05  -15.5045 26121.4   3395.1   7.4055 26341.1
 08 10 2016  22 06  -15.5049 26121.1   3396.2   7.4078 26340.9
 08 10 2016  22 07  -15.5051 26121.4   3394.5   7.4041 26341.0
 08 10 2016  22 08  -15.5049 26121.4   3396.4   7.4082 26341.2
 08 10 2016  22 09  -15.5039 26121.7   3396.5   7.4083 26341.6
 08 10 2016  22 10  -15.5040 26122.4   3394.4   7.4036 26342.0
 08 10 2016  22 11  -15.5050 26122.4   3394.1   7.4031 26341.9
 08 10 2016  22 12  -15.5034 26122.7   3395.3   7.4056 26342.4
 08 10 2016  22 13  -15.5034 26122.6   3396.3   7.4078 26342.4
 08 10 2016  22 14  -15.5032 26122.9   3396.4   7.4078 26342.7
 08 10 2016  22 15  -15.5040 26123.2   3394.9   7.4046 26342.9
 08 10 2016  22 16  -15.5043 26123.0   3396.3   7.4075 26342.9
 08 10 2016  22 17  -15.5034 26123.5   3395.7   7.4062 26343.3
 08 10 2016  22 18  -15.5038 26123.6   3394.6   7.4038 26343.2
 08 10 2016  22 19  -15.5044 26123.3   3395.2   7.4052 26343.0
 08 10 2016  22 20  -15.5043 26123.3   3394.9   7.4045 26343.0
 08 10 2016  22 21  -15.5044 26123.4   3395.1   7.4049 26343.1
 08 10 2016  22 22  -15.5045 26123.3   3395.8   7.4065 26343.1
 08 10 2016  22 23  -15.5040 26123.7   3394.9   7.4045 26343.4
 08 10 2016  22 24  -15.5048 26123.4   3395.1   7.4049 26343.1
 08 10 2016  22 25  -15.5042 26123.5   3396.0   7.4068 26343.3
 08 10 2016  22 26  -15.5032 26123.7   3396.2   7.4072 26343.6
 08 10 2016  22 27  -15.5042 26123.6   3395.8   7.4062 26343.4
 08 10 2016  22 28  -15.5045 26123.5   3395.3   7.4053 26343.2
 08 10 2016  22 29  -15.5058 26123.2   3395.0   7.4046 26342.9
 08 10 2016  22 30  -15.5054 26123.3   3395.7   7.4063 26343.1
 08 10 2016  22 31  -15.5040 26123.7   3395.1   7.4048 26343.4
 08 10 2016  22 32  -15.5052 26123.4   3395.2   7.4050 26343.1
 08 10 2016  22 33  -15.5052 26123.5   3395.0   7.4046 26343.2
 08 10 2016  22 34  -15.5050 26123.5   3395.6   7.4060 26343.2
 08 10 2016  22 35  -15.5046 26123.7   3395.5   7.4056 26343.5
 08 10 2016  22 36  -15.5051 26123.7   3395.3   7.4051 26343.4
 08 10 2016  22 37  -15.5050 26123.9   3394.8   7.4040 26343.5
 08 10 2016  22 38  -15.5047 26124.0   3395.7   7.4060 26343.7
 08 10 2016  22 39  -15.5056 26123.7   3395.5   7.4057 26343.4
 08 10 2016  22 40  -15.5056 26123.7   3396.3   7.4074 26343.5
 08 10 2016  22 41  -15.5050 26124.1   3395.6   7.4057 26343.9
 08 10 2016  22 42  -15.5051 26124.1   3396.1   7.4069 26343.9
 08 10 2016  22 43  -15.5050 26124.3   3396.5   7.4076 26344.1
 08 10 2016  22 44  -15.5050 26124.5   3396.3   7.4073 26344.3
 08 10 2016  22 45  -15.5048 26124.8   3395.9   7.4063 26344.6
 08 10 2016  22 46  -15.5045 26124.8   3396.2   7.4069 26344.6
 08 10 2016  22 47  -15.5046 26124.8   3395.9   7.4062 26344.6
 08 10 2016  22 48  -15.5044 26124.9   3396.1   7.4067 26344.7
 08 10 2016  22 49  -15.5042 26124.8   3396.3   7.4070 26344.6
 08 10 2016  22 50  -15.5042 26124.7   3395.8   7.4059 26344.4
 08 10 2016  22 51  -15.5040 26124.6   3395.8   7.4061 26344.3
 08 10 2016  22 52  -15.5039 26124.6   3395.5   7.4055 26344.3
 08 10 2016  22 53  -15.5036 26124.6   3395.9   7.4062 26344.4
 08 10 2016  22 54  -15.5036 26124.5   3395.7   7.4058 26344.3
 08 10 2016  22 55  -15.5037 26124.4   3395.7   7.4059 26344.2
 08 10 2016  22 56  -15.5035 26124.4   3395.7   7.4058 26344.2
 08 10 2016  22 57  -15.5035 26124.4   3395.0   7.4044 26344.1
 08 10 2016  22 58  -15.5041 26124.1   3395.8   7.4061 26343.9
 08 10 2016  22 59  -15.5036 26124.2   3395.8   7.4061 26343.9
 08 10 2016  23 00  -15.5037 26124.1   3395.9   7.4065 26343.9
 08 10 2016  23 01  -15.5038 26124.0   3395.2   7.4050 26343.7
 08 10 2016  23 02  -15.5040 26123.9   3395.2   7.4048 26343.6
 08 10 2016  23 03  -15.5028 26123.9   3396.5   7.4077 26343.8
 08 10 2016  23 04  -15.5040 26123.7   3396.2   7.4072 26343.5
 08 10 2016  23 05  -15.5046 26123.4   3395.1   7.4049 26343.1
 08 10 2016  23 06  -15.5044 26123.4   3394.8   7.4042 26343.1
 08 10 2016  23 07  -15.5044 26123.2   3395.8   7.4065 26343.0
 08 10 2016  23 08  -15.5045 26123.1   3396.1   7.4072 26343.0
 08 10 2016  23 09  -15.5046 26123.0   3396.2   7.4074 26342.8
 08 10 2016  23 10  -15.5045 26123.0   3395.8   7.4066 26342.8
 08 10 2016  23 11  -15.5043 26123.0   3395.4   7.4057 26342.8
 08 10 2016  23 12  -15.5049 26122.9   3395.2   7.4052 26342.6
 08 10 2016  23 13  -15.5044 26122.9   3395.9   7.4068 26342.7
 08 10 2016  23 14  -15.5050 26122.8   3395.6   7.4061 26342.5
 08 10 2016  23 15  -15.5050 26122.7   3396.2   7.4075 26342.6
 08 10 2016  23 16  -15.5046 26123.0   3395.0   7.4047 26342.7
 08 10 2016  23 17  -15.5048 26122.8   3396.2   7.4074 26342.7
 08 10 2016  23 18  -15.5045 26122.9   3396.4   7.4078 26342.8
 08 10 2016  23 19  -15.5056 26122.7   3395.7   7.4064 26342.5
 08 10 2016  23 20  -15.5054 26122.4   3396.8   7.4089 26342.4
 08 10 2016  23 21  -15.5050 26122.8   3395.6   7.4060 26342.5
 08 10 2016  23 22  -15.5053 26122.9   3394.7   7.4041 26342.5
 08 10 2016  23 23  -15.5055 26122.7   3394.9   7.4045 26342.4
 08 10 2016  23 24  -15.5053 26122.6   3396.6   7.4084 26342.5
 08 10 2016  23 25  -15.5052 26122.7   3396.4   7.4078 26342.6
 08 10 2016  23 26  -15.5053 26122.7   3397.5   7.4102 26342.7
 08 10 2016  23 27  -15.5049 26122.8   3395.5   7.4059 26342.6
 08 10 2016  23 28  -15.5047 26123.0   3396.0   7.4069 26342.8
 08 10 2016  23 29  -15.5056 26122.6   3396.1   7.4072 26342.4
 08 10 2016  23 30  -15.5058 26122.7   3395.4   7.4057 26342.5
 08 10 2016  23 31  -15.5057 26122.7   3396.0   7.4071 26342.6
 08 10 2016  23 32  -15.5061 26122.6   3396.7   7.4086 26342.5
 08 10 2016  23 33  -15.5058 26122.8   3396.2   7.4074 26342.7
 08 10 2016  23 34  -15.5059 26122.8   3396.4   7.4079 26342.7
 08 10 2016  23 35  -15.5054 26123.1   3396.1   7.4072 26342.9
 08 10 2016  23 36  -15.5048 26123.3   3397.3   7.4096 26343.3
 08 10 2016  23 37  -15.5051 26123.5   3396.3   7.4075 26343.3
 08 10 2016  23 38  -15.5052 26123.5   3396.6   7.4080 26343.4
 08 10 2016  23 39  -15.5053 26123.5   3396.6   7.4081 26343.4
 08 10 2016  23 40  -15.5057 26123.5   3396.5   7.4078 26343.3
 08 10 2016  23 41  -15.5056 26123.5   3396.6   7.4081 26343.4
 08 10 2016  23 42  -15.5051 26123.5   3397.1   7.4092 26343.4
 08 10 2016  23 43  -15.5062 26123.2   3395.8   7.4064 26343.0
 08 10 2016  23 44  -15.5053 26123.1   3397.0   7.4090 26343.0
 08 10 2016  23 45  -15.5056 26122.7   3396.8   7.4088 26342.6
 08 10 2016  23 46  -15.5069 26122.4   3394.9   7.4047 26342.0
 08 10 2016  23 47  -15.5067 26121.9   3397.2   7.4099 26341.8
 08 10 2016  23 48  -15.5082 26121.6   3395.3   7.4057 26341.4
 08 10 2016  23 49  -15.5061 26121.6   3397.7   7.4111 26341.7
 08 10 2016  23 50  -15.5071 26121.1   3395.7   7.4069 26340.9
 08 10 2016  23 51  -15.5076 26120.9   3395.5   7.4064 26340.7
 08 10 2016  23 52  -15.5075 26121.1   3395.6   7.4067 26340.9
 08 10 2016  23 53  -15.5078 26120.7   3395.9   7.4074 26340.5
 08 10 2016  23 54  -15.5075 26120.5   3397.3   7.4103 26340.4
 08 10 2016  23 55  -15.5074 26120.8   3396.1   7.4077 26340.6
 08 10 2016  23 56  -15.5089 26120.2   3395.3   7.4063 26339.9
 08 10 2016  23 57  -15.5093 26119.9   3396.0   7.4078 26339.7
 08 10 2016  23 58  -15.5085 26119.8   3397.1   7.4103 26339.8
 08 10 2016  23 59  -15.5090 26119.7   3396.1   7.4080 26339.6
