Manaus - AM                    UNIVAP-03  <216> 1 Min. Reported data

 DD MM YYYY  HH MM   D(Deg)  H(nT)   Z(nT)   I(Deg)   F(nT)

 03 08 2016  00 00  -15.4909 26107.6   3441.9   7.5102 26333.5
 03 08 2016  00 01  -15.4906 26107.7   3441.1   7.5085 26333.5
 03 08 2016  00 02  -15.4918 26106.0   3439.7   7.5061 26331.6
 03 08 2016  00 03  -15.4942 26101.4   3437.3   7.5021 26326.8
 03 08 2016  00 04  -15.4958 26097.8   3435.7   7.4998 26323.0
 03 08 2016  00 05  -15.4968 26094.8   3435.3   7.4997 26319.9
 03 08 2016  00 06  -15.4959 26092.7   3435.4   7.5005 26317.9
 03 08 2016  00 07  -15.4956 26092.5   3436.5   7.5029 26317.8
 03 08 2016  00 08  -15.4951 26093.0   3437.5   7.5049 26318.4
 03 08 2016  00 09  -15.4948 26093.6   3438.8   7.5075 26319.2
 03 08 2016  00 10  -15.4942 26094.6   3439.8   7.5094 26320.4
 03 08 2016  00 11  -15.4940 26095.4   3440.3   7.5102 26321.2
 03 08 2016  00 12  -15.4946 26096.1   3440.7   7.5110 26321.9
 03 08 2016  00 13  -15.4951 26096.8   3441.0   7.5114 26322.7
 03 08 2016  00 14  -15.4955 26097.2   3441.0   7.5113 26323.0
 03 08 2016  00 15  -15.4963 26097.1   3440.9   7.5111 26322.9
 03 08 2016  00 16  -15.4973 26097.5   3441.0   7.5113 26323.3
 03 08 2016  00 17  -15.4981 26098.2   3441.4   7.5119 26324.1
 03 08 2016  00 18  -15.4984 26098.3   3441.2   7.5114 26324.1
 03 08 2016  00 19  -15.4991 26098.6   3441.1   7.5112 26324.5
 03 08 2016  00 20  -15.5004 26099.0   3441.2   7.5111 26324.9
 03 08 2016  00 21  -15.5008 26099.8   3441.6   7.5118 26325.7
 03 08 2016  00 22  -15.5007 26100.5   3442.0   7.5126 26326.5
 03 08 2016  00 23  -15.5010 26101.2   3441.9   7.5122 26327.1
 03 08 2016  00 24  -15.5015 26101.4   3442.8   7.5141 26327.4
 03 08 2016  00 25  -15.5019 26101.2   3442.0   7.5124 26327.2
 03 08 2016  00 26  -15.5024 26100.5   3441.7   7.5119 26326.5
 03 08 2016  00 27  -15.5022 26100.0   3441.4   7.5114 26325.9
 03 08 2016  00 28  -15.5034 26098.9   3439.9   7.5084 26324.7
 03 08 2016  00 29  -15.5042 26098.2   3439.6   7.5081 26323.9
 03 08 2016  00 30  -15.5043 26098.0   3440.0   7.5089 26323.7
 03 08 2016  00 31  -15.5037 26097.8   3440.6   7.5103 26323.6
 03 08 2016  00 32  -15.5037 26097.7   3440.8   7.5106 26323.6
 03 08 2016  00 33  -15.5038 26098.0   3440.5   7.5100 26323.8
 03 08 2016  00 34  -15.5033 26098.5   3441.7   7.5124 26324.5
 03 08 2016  00 35  -15.5031 26099.0   3441.4   7.5117 26324.9
 03 08 2016  00 36  -15.5030 26099.4   3441.8   7.5125 26325.3
 03 08 2016  00 37  -15.5034 26100.2   3441.3   7.5111 26326.1
 03 08 2016  00 38  -15.5027 26100.8   3442.0   7.5125 26326.8
 03 08 2016  00 39  -15.5029 26101.3   3442.1   7.5124 26327.2
 03 08 2016  00 40  -15.5036 26101.8   3442.0   7.5122 26327.8
 03 08 2016  00 41  -15.5041 26102.8   3442.2   7.5124 26328.8
 03 08 2016  00 42  -15.5043 26102.8   3441.9   7.5117 26328.8
 03 08 2016  00 43  -15.5054 26102.1   3441.6   7.5111 26328.0
 03 08 2016  00 44  -15.5064 26102.0   3441.2   7.5104 26327.9
 03 08 2016  00 45  -15.5071 26102.6   3441.6   7.5110 26328.6
 03 08 2016  00 46  -15.5068 26103.6   3442.6   7.5130 26329.6
 03 08 2016  00 47  -15.5067 26104.2   3443.0   7.5136 26330.3
 03 08 2016  00 48  -15.5069 26104.6   3442.8   7.5130 26330.6
 03 08 2016  00 49  -15.5074 26104.9   3442.9   7.5133 26330.9
 03 08 2016  00 50  -15.5080 26104.9   3443.4   7.5143 26331.0
 03 08 2016  00 51  -15.5080 26104.3   3442.6   7.5128 26330.3
 03 08 2016  00 52  -15.5079 26105.9   3443.0   7.5130 26332.0
 03 08 2016  00 53  -15.5064 26108.4   3444.7   7.5162 26334.7
 03 08 2016  00 54  -15.5052 26109.9   3445.9   7.5181 26336.3
 03 08 2016  00 55  -15.5052 26111.3   3445.1   7.5162 26337.6
 03 08 2016  00 56  -15.5055 26112.6   3445.3   7.5162 26338.9
 03 08 2016  00 57  -15.5054 26114.3   3445.3   7.5158 26340.6
 03 08 2016  00 58  -15.5049 26115.7   3446.3   7.5174 26342.1
 03 08 2016  00 59  -15.5041 26117.4   3447.0   7.5185 26343.9
 03 08 2016  01 00  -15.5033 26119.8   3446.8   7.5174 26346.3
 03 08 2016  01 01  -15.5028 26120.4   3446.4   7.5163 26346.8
 03 08 2016  01 02  -15.5022 26120.9   3446.2   7.5158 26347.3
 03 08 2016  01 03  -15.5008 26121.4   3445.9   7.5151 26347.7
 03 08 2016  01 04  -15.5007 26121.7   3445.3   7.5135 26347.9
 03 08 2016  01 05  -15.4999 26122.0   3445.2   7.5134 26348.3
 03 08 2016  01 06  -15.4992 26121.9   3444.6   7.5121 26348.0
 03 08 2016  01 07  -15.4997 26121.3   3443.2   7.5092 26347.3
 03 08 2016  01 08  -15.4990 26122.5   3444.1   7.5109 26348.6
 03 08 2016  01 09  -15.4978 26122.9   3444.3   7.5112 26349.0
 03 08 2016  01 10  -15.4978 26122.3   3443.9   7.5103 26348.4
 03 08 2016  01 11  -15.4970 26123.7   3444.7   7.5117 26349.8
 03 08 2016  01 12  -15.4972 26123.9   3443.9   7.5100 26349.9
 03 08 2016  01 13  -15.4969 26124.6   3444.0   7.5100 26350.6
 03 08 2016  01 14  -15.4954 26125.4   3444.4   7.5107 26351.4
 03 08 2016  01 15  -15.4948 26125.9   3443.6   7.5087 26351.9
 03 08 2016  01 16  -15.4937 26127.5   3444.4   7.5100 26353.6
 03 08 2016  01 17  -15.4924 26129.1   3444.9   7.5107 26355.3
 03 08 2016  01 18  -15.4915 26130.0   3444.5   7.5095 26356.1
 03 08 2016  01 19  -15.4902 26132.6   3445.7   7.5114 26358.8
 03 08 2016  01 20  -15.4885 26136.8   3447.4   7.5139 26363.2
 03 08 2016  01 21  -15.4870 26140.1   3448.3   7.5149 26366.5
 03 08 2016  01 22  -15.4853 26143.3   3448.6   7.5146 26369.7
 03 08 2016  01 23  -15.4846 26144.4   3448.1   7.5132 26370.8
 03 08 2016  01 24  -15.4842 26143.4   3446.2   7.5093 26369.6
 03 08 2016  01 25  -15.4819 26144.6   3446.0   7.5085 26370.8
 03 08 2016  01 26  -15.4797 26144.8   3445.2   7.5068 26370.8
 03 08 2016  01 27  -15.4794 26143.8   3444.1   7.5047 26369.6
 03 08 2016  01 28  -15.4784 26142.2   3443.1   7.5030 26368.0
 03 08 2016  01 29  -15.4785 26140.6   3441.1   7.4992 26366.1
 03 08 2016  01 30  -15.4776 26140.3   3440.9   7.4988 26365.7
 03 08 2016  01 31  -15.4773 26141.4   3441.6   7.5001 26367.0
 03 08 2016  01 32  -15.4769 26142.3   3442.2   7.5011 26367.9
 03 08 2016  01 33  -15.4778 26142.5   3441.6   7.4997 26368.0
 03 08 2016  01 34  -15.4790 26141.5   3440.6   7.4979 26366.9
 03 08 2016  01 35  -15.4815 26139.2   3439.2   7.4956 26364.4
 03 08 2016  01 36  -15.4831 26138.3   3438.9   7.4951 26363.5
 03 08 2016  01 37  -15.4842 26138.4   3439.4   7.4962 26363.7
 03 08 2016  01 38  -15.4860 26138.4   3439.3   7.4960 26363.7
 03 08 2016  01 39  -15.4875 26138.6   3439.5   7.4963 26363.9
 03 08 2016  01 40  -15.4888 26139.4   3440.1   7.4974 26364.8
 03 08 2016  01 41  -15.4904 26139.8   3440.3   7.4977 26365.2
 03 08 2016  01 42  -15.4915 26140.7   3440.8   7.4984 26366.2
 03 08 2016  01 43  -15.4925 26141.6   3441.0   7.4987 26367.1
 03 08 2016  01 44  -15.4937 26142.0   3440.8   7.4982 26367.5
 03 08 2016  01 45  -15.4952 26142.5   3440.8   7.4981 26367.9
 03 08 2016  01 46  -15.4965 26142.9   3441.0   7.4983 26368.4
 03 08 2016  01 47  -15.4977 26143.4   3441.5   7.4992 26369.0
 03 08 2016  01 48  -15.4993 26143.8   3440.7   7.4974 26369.3
 03 08 2016  01 49  -15.5001 26144.1   3440.9   7.4977 26369.6
 03 08 2016  01 50  -15.5011 26145.0   3441.2   7.4982 26370.5
 03 08 2016  01 51  -15.5011 26147.5   3442.3   7.4999 26373.1
 03 08 2016  01 52  -15.5007 26152.6   3445.2   7.5046 26378.6
 03 08 2016  01 53  -15.5008 26155.2   3445.6   7.5049 26381.1
 03 08 2016  01 54  -15.5025 26154.5   3444.1   7.5016 26380.3
 03 08 2016  01 55  -15.5049 26151.1   3441.2   7.4964 26376.5
 03 08 2016  01 56  -15.5073 26148.2   3438.9   7.4924 26373.4
 03 08 2016  01 57  -15.5089 26147.0   3438.3   7.4913 26372.1
 03 08 2016  01 58  -15.5098 26146.7   3438.7   7.4923 26371.9
 03 08 2016  01 59  -15.5099 26147.3   3439.5   7.4938 26372.6
 03 08 2016  02 00  -15.5099 26148.0   3439.9   7.4944 26373.3
 03 08 2016  02 01  -15.5094 26149.0   3440.7   7.4959 26374.3
 03 08 2016  02 02  -15.5087 26150.7   3441.4   7.4970 26376.2
 03 08 2016  02 03  -15.5085 26151.8   3442.2   7.4983 26377.3
 03 08 2016  02 04  -15.5069 26152.8   3442.4   7.4986 26378.4
 03 08 2016  02 05  -15.5073 26153.2   3441.6   7.4968 26378.7
 03 08 2016  02 06  -15.5079 26153.6   3441.9   7.4972 26379.2
 03 08 2016  02 07  -15.5092 26152.8   3440.7   7.4948 26378.1
 03 08 2016  02 08  -15.5105 26151.4   3439.6   7.4928 26376.6
 03 08 2016  02 09  -15.5098 26152.6   3440.4   7.4942 26377.9
 03 08 2016  02 10  -15.5071 26160.1   3444.8   7.5016 26385.9
 03 08 2016  02 11  -15.5069 26161.3   3444.7   7.5011 26387.1
 03 08 2016  02 12  -15.5084 26158.8   3441.9   7.4958 26384.3
 03 08 2016  02 13  -15.5094 26156.9   3440.4   7.4930 26382.2
 03 08 2016  02 14  -15.5094 26156.1   3439.7   7.4917 26381.3
 03 08 2016  02 15  -15.5091 26156.0   3439.6   7.4916 26381.2
 03 08 2016  02 16  -15.5089 26156.4   3440.0   7.4924 26381.7
 03 08 2016  02 17  -15.5090 26156.2   3439.7   7.4918 26381.4
 03 08 2016  02 18  -15.5086 26155.8   3439.6   7.4916 26381.0
 03 08 2016  02 19  -15.5083 26155.3   3439.2   7.4909 26380.5
 03 08 2016  02 20  -15.5080 26154.3   3438.9   7.4905 26379.4
 03 08 2016  02 21  -15.5076 26152.4   3437.8   7.4887 26377.4
 03 08 2016  02 22  -15.5071 26151.0   3437.5   7.4885 26375.9
 03 08 2016  02 23  -15.5061 26150.0   3437.8   7.4893 26375.0
 03 08 2016  02 24  -15.5050 26149.5   3438.0   7.4900 26374.6
 03 08 2016  02 25  -15.5044 26149.3   3437.8   7.4896 26374.3
 03 08 2016  02 26  -15.5034 26149.0   3437.7   7.4896 26374.0
 03 08 2016  02 27  -15.5029 26149.0   3438.1   7.4904 26374.1
 03 08 2016  02 28  -15.5027 26149.0   3438.6   7.4914 26374.1
 03 08 2016  02 29  -15.5026 26148.9   3438.3   7.4908 26373.9
 03 08 2016  02 30  -15.5027 26148.8   3438.4   7.4910 26373.9
 03 08 2016  02 31  -15.5031 26148.1   3437.8   7.4899 26373.1
 03 08 2016  02 32  -15.5038 26147.0   3437.1   7.4888 26371.9
 03 08 2016  02 33  -15.5049 26145.8   3437.0   7.4889 26370.8
 03 08 2016  02 34  -15.5052 26145.2   3436.3   7.4875 26370.0
 03 08 2016  02 35  -15.5057 26145.2   3437.4   7.4900 26370.2
 03 08 2016  02 36  -15.5055 26145.5   3438.2   7.4916 26370.6
 03 08 2016  02 37  -15.5054 26145.7   3438.0   7.4911 26370.7
 03 08 2016  02 38  -15.5047 26145.7   3438.7   7.4925 26370.8
 03 08 2016  02 39  -15.5049 26145.4   3438.5   7.4923 26370.5
 03 08 2016  02 40  -15.5048 26145.6   3438.7   7.4927 26370.7
 03 08 2016  02 41  -15.5053 26144.8   3438.2   7.4917 26369.9
 03 08 2016  02 42  -15.5059 26144.3   3437.7   7.4908 26369.3
 03 08 2016  02 43  -15.5063 26144.9   3438.4   7.4923 26370.0
 03 08 2016  02 44  -15.5073 26145.9   3439.1   7.4934 26371.2
 03 08 2016  02 45  -15.5084 26146.5   3439.5   7.4940 26371.8
 03 08 2016  02 46  -15.5096 26146.9   3439.3   7.4936 26372.1
 03 08 2016  02 47  -15.5106 26146.9   3439.5   7.4939 26372.2
 03 08 2016  02 48  -15.5113 26147.2   3439.7   7.4942 26372.5
 03 08 2016  02 49  -15.5117 26147.7   3440.2   7.4953 26373.0
 03 08 2016  02 50  -15.5113 26148.1   3439.6   7.4937 26373.4
 03 08 2016  02 51  -15.5114 26147.4   3438.9   7.4925 26372.6
 03 08 2016  02 52  -15.5110 26146.9   3439.3   7.4934 26372.1
 03 08 2016  02 53  -15.5099 26147.8   3440.3   7.4954 26373.2
 03 08 2016  02 54  -15.5085 26149.3   3440.5   7.4953 26374.7
 03 08 2016  02 55  -15.5086 26150.1   3440.4   7.4951 26375.4
 03 08 2016  02 56  -15.5083 26150.6   3440.2   7.4945 26375.9
 03 08 2016  02 57  -15.5083 26151.3   3441.2   7.4965 26376.7
 03 08 2016  02 58  -15.5087 26151.6   3441.6   7.4971 26377.0
 03 08 2016  02 59  -15.5101 26151.0   3439.9   7.4937 26376.3
 03 08 2016  03 00  -15.5114 26150.0   3440.1   7.4943 26375.3
 03 08 2016  03 01  -15.5126 26149.5   3439.3   7.4927 26374.7
 03 08 2016  03 02  -15.5133 26149.5   3439.9   7.4941 26374.8
 03 08 2016  03 03  -15.5135 26149.3   3439.5   7.4932 26374.5
 03 08 2016  03 04  -15.5135 26148.6   3439.2   7.4927 26373.8
 03 08 2016  03 05  -15.5132 26148.7   3439.3   7.4930 26373.9
 03 08 2016  03 06  -15.5130 26149.0   3439.6   7.4937 26374.2
 03 08 2016  03 07  -15.5128 26149.0   3439.8   7.4940 26374.3
 03 08 2016  03 08  -15.5128 26149.0   3439.9   7.4942 26374.3
 03 08 2016  03 09  -15.5128 26148.9   3439.4   7.4932 26374.2
 03 08 2016  03 10  -15.5126 26148.6   3439.4   7.4933 26373.9
 03 08 2016  03 11  -15.5122 26148.7   3439.5   7.4935 26373.9
 03 08 2016  03 12  -15.5123 26149.0   3439.8   7.4940 26374.3
 03 08 2016  03 13  -15.5125 26150.3   3439.9   7.4939 26375.6
 03 08 2016  03 14  -15.5131 26150.6   3440.2   7.4945 26375.9
 03 08 2016  03 15  -15.5136 26150.0   3440.3   7.4948 26375.4
 03 08 2016  03 16  -15.5139 26149.6   3440.3   7.4948 26375.0
 03 08 2016  03 17  -15.5147 26150.0   3440.6   7.4954 26375.4
 03 08 2016  03 18  -15.5142 26150.6   3440.8   7.4957 26376.0
 03 08 2016  03 19  -15.5139 26150.2   3440.7   7.4956 26375.6
 03 08 2016  03 20  -15.5142 26149.6   3440.6   7.4955 26375.0
 03 08 2016  03 21  -15.5148 26149.3   3439.3   7.4928 26374.5
 03 08 2016  03 22  -15.5153 26149.4   3439.0   7.4921 26374.6
 03 08 2016  03 23  -15.5152 26149.1   3439.9   7.4943 26374.4
 03 08 2016  03 24  -15.5153 26149.1   3439.1   7.4924 26374.3
 03 08 2016  03 25  -15.5149 26149.6   3439.8   7.4939 26374.9
 03 08 2016  03 26  -15.5146 26150.2   3440.5   7.4951 26375.6
 03 08 2016  03 27  -15.5146 26150.4   3441.0   7.4963 26375.8
 03 08 2016  03 28  -15.5150 26150.4   3440.6   7.4954 26375.7
 03 08 2016  03 29  -15.5163 26150.6   3440.8   7.4958 26376.0
 03 08 2016  03 30  -15.5167 26150.7   3440.7   7.4955 26376.1
 03 08 2016  03 31  -15.5177 26150.9   3440.7   7.4953 26376.2
 03 08 2016  03 32  -15.5177 26150.6   3440.1   7.4941 26375.9
 03 08 2016  03 33  -15.5176 26150.3   3440.4   7.4948 26375.7
 03 08 2016  03 34  -15.5174 26149.9   3439.7   7.4936 26375.1
 03 08 2016  03 35  -15.5173 26149.6   3439.7   7.4936 26374.8
 03 08 2016  03 36  -15.5168 26150.2   3440.7   7.4956 26375.5
 03 08 2016  03 37  -15.5160 26150.9   3441.1   7.4964 26376.3
 03 08 2016  03 38  -15.5151 26151.1   3441.4   7.4969 26376.6
 03 08 2016  03 39  -15.5141 26151.5   3440.8   7.4954 26376.9
 03 08 2016  03 40  -15.5138 26151.9   3440.6   7.4950 26377.2
 03 08 2016  03 41  -15.5140 26152.2   3441.4   7.4966 26377.7
 03 08 2016  03 42  -15.5143 26153.2   3441.1   7.4956 26378.6
 03 08 2016  03 43  -15.5136 26154.1   3442.5   7.4983 26379.7
 03 08 2016  03 44  -15.5143 26153.5   3441.1   7.4955 26378.9
 03 08 2016  03 45  -15.5148 26153.8   3440.3   7.4938 26379.1
 03 08 2016  03 46  -15.5140 26154.2   3440.4   7.4939 26379.5
 03 08 2016  03 47  -15.5147 26153.4   3440.0   7.4932 26378.6
 03 08 2016  03 48  -15.5157 26151.7   3438.7   7.4909 26376.8
 03 08 2016  03 49  -15.5152 26151.2   3439.2   7.4920 26376.4
 03 08 2016  03 50  -15.5145 26152.7   3440.0   7.4934 26378.0
 03 08 2016  03 51  -15.5160 26151.3   3439.9   7.4935 26376.6
 03 08 2016  03 52  -15.5183 26146.3   3436.0   7.4866 26371.2
 03 08 2016  03 53  -15.5192 26142.8   3434.3   7.4839 26367.4
 03 08 2016  03 54  -15.5192 26141.3   3435.1   7.4862 26366.1
 03 08 2016  03 55  -15.5181 26141.4   3436.2   7.4885 26366.2
 03 08 2016  03 56  -15.5174 26141.5   3436.5   7.4890 26366.4
 03 08 2016  03 57  -15.5168 26141.8   3437.3   7.4907 26366.8
 03 08 2016  03 58  -15.5155 26142.4   3438.3   7.4925 26367.5
 03 08 2016  03 59  -15.5146 26142.9   3439.4   7.4949 26368.2
 03 08 2016  04 00  -15.5138 26143.1   3439.2   7.4945 26368.3
 03 08 2016  04 01  -15.5136 26143.1   3439.7   7.4955 26368.4
 03 08 2016  04 02  -15.5133 26143.2   3439.5   7.4949 26368.5
 03 08 2016  04 03  -15.5123 26143.3   3439.4   7.4947 26368.6
 03 08 2016  04 04  -15.5118 26143.1   3438.5   7.4929 26368.3
 03 08 2016  04 05  -15.5108 26143.0   3439.3   7.4947 26368.3
 03 08 2016  04 06  -15.5101 26143.1   3438.8   7.4934 26368.3
 03 08 2016  04 07  -15.5096 26143.2   3439.8   7.4957 26368.5
 03 08 2016  04 08  -15.5095 26143.4   3439.9   7.4959 26368.7
 03 08 2016  04 09  -15.5097 26142.9   3439.6   7.4953 26368.2
 03 08 2016  04 10  -15.5092 26142.3   3439.4   7.4950 26367.6
 03 08 2016  04 11  -15.5089 26142.3   3438.9   7.4939 26367.5
 03 08 2016  04 12  -15.5085 26142.3   3439.4   7.4950 26367.6
 03 08 2016  04 13  -15.5081 26142.3   3439.5   7.4953 26367.6
 03 08 2016  04 14  -15.5077 26142.2   3439.6   7.4955 26367.5
 03 08 2016  04 15  -15.5074 26142.4   3439.3   7.4949 26367.7
 03 08 2016  04 16  -15.5076 26143.0   3440.1   7.4963 26368.4
 03 08 2016  04 17  -15.5079 26143.5   3440.3   7.4966 26368.9
 03 08 2016  04 18  -15.5079 26143.7   3440.0   7.4959 26369.1
 03 08 2016  04 19  -15.5081 26144.1   3440.0   7.4959 26369.4
 03 08 2016  04 20  -15.5086 26144.5   3440.5   7.4969 26369.9
 03 08 2016  04 21  -15.5091 26145.0   3440.3   7.4963 26370.3
 03 08 2016  04 22  -15.5090 26145.5   3440.5   7.4966 26370.9
 03 08 2016  04 23  -15.5088 26146.2   3441.0   7.4974 26371.6
 03 08 2016  04 24  -15.5085 26146.7   3441.0   7.4972 26372.1
 03 08 2016  04 25  -15.5085 26146.9   3441.2   7.4977 26372.3
 03 08 2016  04 26  -15.5084 26147.0   3441.0   7.4972 26372.5
 03 08 2016  04 27  -15.5082 26147.3   3440.9   7.4969 26372.7
 03 08 2016  04 28  -15.5075 26147.5   3441.1   7.4972 26373.0
 03 08 2016  04 29  -15.5067 26148.0   3441.3   7.4975 26373.4
 03 08 2016  04 30  -15.5060 26148.9   3441.4   7.4975 26374.4
 03 08 2016  04 31  -15.5057 26149.5   3441.3   7.4970 26374.9
 03 08 2016  04 32  -15.5053 26149.7   3441.5   7.4974 26375.2
 03 08 2016  04 33  -15.5052 26150.0   3441.2   7.4968 26375.5
 03 08 2016  04 34  -15.5055 26150.2   3441.2   7.4967 26375.7
 03 08 2016  04 35  -15.5061 26150.2   3440.7   7.4955 26375.6
 03 08 2016  04 36  -15.5068 26150.0   3440.7   7.4956 26375.3
 03 08 2016  04 37  -15.5072 26149.6   3440.6   7.4956 26375.0
 03 08 2016  04 38  -15.5071 26149.0   3440.2   7.4949 26374.3
 03 08 2016  04 39  -15.5069 26148.8   3439.7   7.4938 26374.0
 03 08 2016  04 40  -15.5068 26148.8   3440.1   7.4947 26374.1
 03 08 2016  04 41  -15.5068 26148.9   3439.9   7.4943 26374.2
 03 08 2016  04 42  -15.5072 26148.9   3440.0   7.4946 26374.2
 03 08 2016  04 43  -15.5077 26148.9   3440.1   7.4946 26374.2
 03 08 2016  04 44  -15.5087 26148.1   3439.7   7.4941 26373.4
 03 08 2016  04 45  -15.5097 26146.4   3437.9   7.4906 26371.4
 03 08 2016  04 46  -15.5099 26145.0   3437.8   7.4908 26370.0
 03 08 2016  04 47  -15.5093 26144.5   3438.3   7.4920 26369.6
 03 08 2016  04 48  -15.5094 26144.3   3438.6   7.4927 26369.4
 03 08 2016  04 49  -15.5098 26143.9   3438.3   7.4921 26369.0
 03 08 2016  04 50  -15.5093 26143.8   3438.5   7.4927 26369.0
 03 08 2016  04 51  -15.5086 26144.2   3439.1   7.4939 26369.4
 03 08 2016  04 52  -15.5086 26144.7   3439.5   7.4946 26369.9
 03 08 2016  04 53  -15.5096 26145.0   3439.8   7.4952 26370.3
 03 08 2016  04 54  -15.5105 26145.7   3440.3   7.4960 26371.1
 03 08 2016  04 55  -15.5119 26147.2   3440.8   7.4967 26372.7
 03 08 2016  04 56  -15.5134 26149.2   3441.6   7.4979 26374.7
 03 08 2016  04 57  -15.5153 26150.3   3442.3   7.4990 26375.9
 03 08 2016  04 58  -15.5178 26150.3   3442.1   7.4985 26375.9
 03 08 2016  04 59  -15.5191 26150.5   3441.6   7.4974 26376.0
 03 08 2016  05 00  -15.5202 26151.3   3442.0   7.4981 26376.8
 03 08 2016  05 01  -15.5219 26151.1   3441.9   7.4979 26376.6
 03 08 2016  05 02  -15.5225 26150.4   3441.5   7.4973 26375.9
 03 08 2016  05 03  -15.5235 26149.3   3440.7   7.4958 26374.7
 03 08 2016  05 04  -15.5243 26148.4   3440.5   7.4957 26373.8
 03 08 2016  05 05  -15.5247 26147.5   3440.0   7.4949 26372.8
 03 08 2016  05 06  -15.5249 26146.5   3439.8   7.4948 26371.8
 03 08 2016  05 07  -15.5258 26145.7   3439.8   7.4950 26371.0
 03 08 2016  05 08  -15.5266 26145.2   3439.6   7.4946 26370.5
 03 08 2016  05 09  -15.5275 26144.4   3439.6   7.4950 26369.7
 03 08 2016  05 10  -15.5285 26143.4   3439.5   7.4949 26368.7
 03 08 2016  05 11  -15.5290 26142.5   3439.5   7.4952 26367.8
 03 08 2016  05 12  -15.5290 26141.4   3439.4   7.4952 26366.7
 03 08 2016  05 13  -15.5287 26140.4   3439.4   7.4956 26365.7
 03 08 2016  05 14  -15.5285 26139.5   3439.3   7.4956 26364.8
 03 08 2016  05 15  -15.5281 26138.7   3439.4   7.4961 26364.0
 03 08 2016  05 16  -15.5281 26137.6   3439.1   7.4957 26362.9
 03 08 2016  05 17  -15.5279 26136.2   3438.9   7.4958 26361.5
 03 08 2016  05 18  -15.5280 26135.3   3438.9   7.4960 26360.6
 03 08 2016  05 19  -15.5278 26134.8   3439.0   7.4964 26360.1
 03 08 2016  05 20  -15.5280 26134.3   3439.3   7.4971 26359.6
 03 08 2016  05 21  -15.5284 26133.4   3439.2   7.4971 26358.8
 03 08 2016  05 22  -15.5288 26132.5   3439.1   7.4972 26357.8
 03 08 2016  05 23  -15.5303 26131.6   3439.1   7.4974 26357.0
 03 08 2016  05 24  -15.5308 26130.3   3438.9   7.4973 26355.6
 03 08 2016  05 25  -15.5308 26129.2   3438.8   7.4974 26354.5
 03 08 2016  05 26  -15.5312 26128.1   3438.7   7.4975 26353.4
 03 08 2016  05 27  -15.5319 26127.1   3438.6   7.4975 26352.4
 03 08 2016  05 28  -15.5327 26126.4   3438.8   7.4983 26351.7
 03 08 2016  05 29  -15.5336 26126.4   3439.0   7.4988 26351.7
 03 08 2016  05 30  -15.5346 26126.6   3439.4   7.4995 26352.0
 03 08 2016  05 31  -15.5355 26126.5   3440.5   7.5020 26352.1
 03 08 2016  05 32  -15.5365 26126.5   3440.3   7.5014 26352.0
 03 08 2016  05 33  -15.5377 26126.6   3440.6   7.5021 26352.2
 03 08 2016  05 34  -15.5392 26126.7   3440.2   7.5012 26352.3
 03 08 2016  05 35  -15.5398 26126.4   3441.2   7.5035 26352.1
 03 08 2016  05 36  -15.5394 26125.9   3441.5   7.5043 26351.6
 03 08 2016  05 37  -15.5402 26125.2   3441.2   7.5037 26350.9
 03 08 2016  05 38  -15.5392 26124.3   3441.4   7.5046 26350.0
 03 08 2016  05 39  -15.5385 26123.2   3440.2   7.5021 26348.8
 03 08 2016  05 40  -15.5382 26122.6   3440.6   7.5032 26348.2
 03 08 2016  05 41  -15.5379 26121.7   3440.2   7.5025 26347.3
 03 08 2016  05 42  -15.5374 26120.8   3440.1   7.5026 26346.3
 03 08 2016  05 43  -15.5373 26119.6   3439.9   7.5025 26345.2
 03 08 2016  05 44  -15.5367 26118.0   3440.5   7.5043 26343.6
 03 08 2016  05 45  -15.5365 26117.1   3440.5   7.5045 26342.8
 03 08 2016  05 46  -15.5367 26117.0   3440.8   7.5052 26342.7
 03 08 2016  05 47  -15.5369 26116.5   3440.9   7.5056 26342.2
 03 08 2016  05 48  -15.5375 26115.7   3441.1   7.5062 26341.5
 03 08 2016  05 49  -15.5373 26114.3   3440.7   7.5058 26340.0
 03 08 2016  05 50  -15.5375 26113.7   3440.9   7.5065 26339.4
 03 08 2016  05 51  -15.5380 26113.5   3441.0   7.5066 26339.2
 03 08 2016  05 52  -15.5381 26113.9   3441.4   7.5075 26339.7
 03 08 2016  05 53  -15.5398 26113.8   3441.3   7.5072 26339.6
 03 08 2016  05 54  -15.5410 26114.0   3442.2   7.5091 26339.8
 03 08 2016  05 55  -15.5428 26114.8   3442.6   7.5097 26340.8
 03 08 2016  05 56  -15.5448 26115.6   3443.4   7.5113 26341.6
 03 08 2016  05 57  -15.5460 26116.5   3443.7   7.5116 26342.6
 03 08 2016  05 58  -15.5471 26117.6   3444.5   7.5130 26343.8
 03 08 2016  05 59  -15.5479 26119.0   3445.2   7.5141 26345.2
 03 08 2016  06 00  -15.5488 26119.9   3445.4   7.5143 26346.1
 03 08 2016  06 01  -15.5498 26120.9   3446.0   7.5153 26347.2
 03 08 2016  06 02  -15.5513 26121.5   3446.1   7.5154 26347.9
 03 08 2016  06 03  -15.5520 26122.3   3447.0   7.5171 26348.7
 03 08 2016  06 04  -15.5521 26122.6   3446.2   7.5153 26348.9
 03 08 2016  06 05  -15.5513 26122.4   3445.9   7.5147 26348.7
 03 08 2016  06 06  -15.5512 26122.1   3446.1   7.5153 26348.4
 03 08 2016  06 07  -15.5499 26122.2   3445.5   7.5139 26348.5
 03 08 2016  06 08  -15.5478 26122.5   3445.5   7.5139 26348.7
 03 08 2016  06 09  -15.5473 26122.3   3446.2   7.5154 26348.6
 03 08 2016  06 10  -15.5486 26122.0   3445.1   7.5131 26348.2
 03 08 2016  06 11  -15.5490 26121.7   3445.6   7.5141 26348.0
 03 08 2016  06 12  -15.5493 26122.0   3444.4   7.5117 26348.1
 03 08 2016  06 13  -15.5495 26122.1   3445.5   7.5140 26348.3
 03 08 2016  06 14  -15.5503 26122.2   3445.1   7.5130 26348.4
 03 08 2016  06 15  -15.5508 26122.4   3446.0   7.5149 26348.7
 03 08 2016  06 16  -15.5504 26122.7   3445.1   7.5130 26348.9
 03 08 2016  06 17  -15.5494 26123.0   3445.5   7.5136 26349.2
 03 08 2016  06 18  -15.5486 26122.9   3445.5   7.5137 26349.1
 03 08 2016  06 19  -15.5478 26123.0   3446.1   7.5149 26349.3
 03 08 2016  06 20  -15.5474 26122.9   3445.3   7.5132 26349.1
 03 08 2016  06 21  -15.5475 26122.7   3444.9   7.5125 26348.8
 03 08 2016  06 22  -15.5473 26122.7   3446.0   7.5148 26349.1
 03 08 2016  06 23  -15.5487 26123.1   3444.5   7.5114 26349.2
 03 08 2016  06 24  -15.5502 26123.7   3444.7   7.5118 26349.9
 03 08 2016  06 25  -15.5515 26123.6   3445.6   7.5138 26349.8
 03 08 2016  06 26  -15.5525 26124.0   3445.1   7.5125 26350.2
 03 08 2016  06 27  -15.5521 26124.1   3445.4   7.5131 26350.3
 03 08 2016  06 28  -15.5527 26124.3   3445.6   7.5135 26350.6
 03 08 2016  06 29  -15.5527 26124.7   3445.2   7.5125 26350.9
 03 08 2016  06 30  -15.5518 26125.1   3445.9   7.5138 26351.4
 03 08 2016  06 31  -15.5512 26125.0   3445.6   7.5134 26351.3
 03 08 2016  06 32  -15.5503 26125.2   3445.8   7.5137 26351.4
 03 08 2016  06 33  -15.5503 26125.4   3446.0   7.5142 26351.7
 03 08 2016  06 34  -15.5498 26126.1   3445.3   7.5123 26352.2
 03 08 2016  06 35  -15.5496 26126.3   3445.8   7.5133 26352.5
 03 08 2016  06 36  -15.5501 26126.7   3445.4   7.5124 26352.9
 03 08 2016  06 37  -15.5515 26127.1   3445.2   7.5118 26353.3
 03 08 2016  06 38  -15.5501 26127.7   3445.8   7.5131 26354.0
 03 08 2016  06 39  -15.5502 26128.0   3444.8   7.5107 26354.1
 03 08 2016  06 40  -15.5505 26128.3   3444.9   7.5109 26354.4
 03 08 2016  06 41  -15.5498 26128.6   3445.1   7.5112 26354.8
 03 08 2016  06 42  -15.5493 26128.9   3444.9   7.5107 26355.0
 03 08 2016  06 43  -15.5495 26128.9   3445.4   7.5117 26355.0
 03 08 2016  06 44  -15.5482 26129.1   3445.4   7.5117 26355.3
 03 08 2016  06 45  -15.5466 26129.4   3445.6   7.5121 26355.6
 03 08 2016  06 46  -15.5461 26129.6   3445.0   7.5108 26355.8
 03 08 2016  06 47  -15.5453 26130.0   3444.3   7.5091 26356.0
 03 08 2016  06 48  -15.5443 26129.9   3445.5   7.5116 26356.1
 03 08 2016  06 49  -15.5427 26130.4   3444.9   7.5102 26356.5
 03 08 2016  06 50  -15.5432 26130.5   3444.6   7.5095 26356.5
 03 08 2016  06 51  -15.5418 26131.0   3445.0   7.5103 26357.1
 03 08 2016  06 52  -15.5417 26131.1   3445.6   7.5115 26357.3
 03 08 2016  06 53  -15.5410 26131.2   3445.3   7.5109 26357.4
 03 08 2016  06 54  -15.5390 26131.7   3444.6   7.5093 26357.8
 03 08 2016  06 55  -15.5378 26131.5   3445.4   7.5110 26357.7
 03 08 2016  06 56  -15.5367 26131.5   3445.1   7.5104 26357.6
 03 08 2016  06 57  -15.5361 26131.4   3445.1   7.5105 26357.5
 03 08 2016  06 58  -15.5342 26131.6   3445.0   7.5101 26357.7
 03 08 2016  06 59  -15.5344 26131.4   3443.6   7.5073 26357.3
 03 08 2016  07 00  -15.5326 26131.4   3444.6   7.5093 26357.5
 03 08 2016  07 01  -15.5325 26131.3   3443.8   7.5077 26357.2
 03 08 2016  07 02  -15.5319 26131.3   3443.5   7.5070 26357.2
 03 08 2016  07 03  -15.5305 26131.6   3444.7   7.5095 26357.6
 03 08 2016  07 04  -15.5305 26131.8   3444.7   7.5095 26357.8
 03 08 2016  07 05  -15.5280 26132.4   3444.9   7.5096 26358.5
 03 08 2016  07 06  -15.5272 26132.4   3444.6   7.5090 26358.5
 03 08 2016  07 07  -15.5263 26132.2   3444.8   7.5096 26358.3
 03 08 2016  07 08  -15.5250 26132.1   3444.8   7.5096 26358.2
 03 08 2016  07 09  -15.5234 26132.0   3444.3   7.5085 26358.0
 03 08 2016  07 10  -15.5219 26131.7   3444.2   7.5085 26357.7
 03 08 2016  07 11  -15.5210 26131.2   3443.6   7.5073 26357.1
 03 08 2016  07 12  -15.5197 26130.7   3443.9   7.5081 26356.7
 03 08 2016  07 13  -15.5192 26130.2   3443.2   7.5066 26356.1
 03 08 2016  07 14  -15.5186 26129.7   3442.9   7.5061 26355.5
 03 08 2016  07 15  -15.5179 26129.1   3442.6   7.5058 26354.9
 03 08 2016  07 16  -15.5174 26128.8   3442.9   7.5064 26354.7
 03 08 2016  07 17  -15.5173 26128.7   3442.8   7.5061 26354.6
 03 08 2016  07 18  -15.5169 26128.8   3443.1   7.5069 26354.7
 03 08 2016  07 19  -15.5177 26128.7   3443.0   7.5067 26354.5
 03 08 2016  07 20  -15.5179 26128.7   3442.7   7.5060 26354.5
 03 08 2016  07 21  -15.5176 26128.8   3442.7   7.5060 26354.7
 03 08 2016  07 22  -15.5174 26128.6   3443.2   7.5072 26354.5
 03 08 2016  07 23  -15.5172 26128.5   3442.9   7.5065 26354.3
 03 08 2016  07 24  -15.5172 26128.3   3443.1   7.5071 26354.2
 03 08 2016  07 25  -15.5175 26128.4   3442.8   7.5063 26354.2
 03 08 2016  07 26  -15.5180 26128.3   3442.9   7.5067 26354.1
 03 08 2016  07 27  -15.5178 26128.4   3443.0   7.5068 26354.3
 03 08 2016  07 28  -15.5189 26128.3   3442.7   7.5062 26354.2
 03 08 2016  07 29  -15.5194 26128.1   3443.3   7.5075 26354.1
 03 08 2016  07 30  -15.5198 26128.1   3442.9   7.5066 26354.0
 03 08 2016  07 31  -15.5197 26128.5   3443.4   7.5075 26354.5
 03 08 2016  07 32  -15.5195 26128.5   3443.4   7.5076 26354.4
 03 08 2016  07 33  -15.5197 26127.8   3443.1   7.5071 26353.7
 03 08 2016  07 34  -15.5193 26127.2   3442.7   7.5064 26353.0
 03 08 2016  07 35  -15.5173 26126.7   3443.0   7.5072 26352.6
 03 08 2016  07 36  -15.5166 26126.1   3442.2   7.5056 26351.9
 03 08 2016  07 37  -15.5165 26125.4   3441.6   7.5045 26351.1
 03 08 2016  07 38  -15.5153 26125.0   3442.4   7.5064 26350.8
 03 08 2016  07 39  -15.5149 26125.3   3442.8   7.5072 26351.1
 03 08 2016  07 40  -15.5134 26125.9   3442.8   7.5070 26351.8
 03 08 2016  07 41  -15.5113 26126.1   3443.5   7.5084 26352.1
 03 08 2016  07 42  -15.5109 26125.7   3442.8   7.5071 26351.6
 03 08 2016  07 43  -15.5102 26125.0   3443.1   7.5080 26351.0
 03 08 2016  07 44  -15.5099 26124.4   3442.3   7.5065 26350.2
 03 08 2016  07 45  -15.5088 26123.9   3442.1   7.5061 26349.7
 03 08 2016  07 46  -15.5074 26123.5   3441.9   7.5057 26349.3
 03 08 2016  07 47  -15.5074 26123.2   3442.2   7.5064 26349.0
 03 08 2016  07 48  -15.5064 26123.8   3442.8   7.5077 26349.7
 03 08 2016  07 49  -15.5062 26124.4   3443.6   7.5093 26350.4
 03 08 2016  07 50  -15.5063 26124.9   3443.7   7.5093 26350.9
 03 08 2016  07 51  -15.5062 26124.9   3442.9   7.5075 26350.8
 03 08 2016  07 52  -15.5062 26125.3   3443.3   7.5082 26351.3
 03 08 2016  07 53  -15.5065 26125.7   3443.5   7.5086 26351.6
 03 08 2016  07 54  -15.5061 26126.4   3443.7   7.5087 26352.4
 03 08 2016  07 55  -15.5060 26127.7   3444.4   7.5101 26353.8
 03 08 2016  07 56  -15.5067 26128.5   3444.5   7.5100 26354.5
 03 08 2016  07 57  -15.5068 26128.5   3444.3   7.5094 26354.6
 03 08 2016  07 58  -15.5061 26128.9   3444.3   7.5094 26354.9
 03 08 2016  07 59  -15.5054 26129.1   3444.2   7.5091 26355.1
 03 08 2016  08 00  -15.5044 26128.7   3443.7   7.5082 26354.7
 03 08 2016  08 01  -15.5036 26128.1   3443.3   7.5076 26354.0
 03 08 2016  08 02  -15.5032 26127.1   3442.6   7.5064 26352.9
 03 08 2016  08 03  -15.5024 26126.6   3442.3   7.5057 26352.4
 03 08 2016  08 04  -15.5017 26125.9   3441.9   7.5050 26351.7
 03 08 2016  08 05  -15.5013 26125.7   3442.5   7.5064 26351.5
 03 08 2016  08 06  -15.5013 26126.3   3442.2   7.5057 26352.0
 03 08 2016  08 07  -15.5016 26127.0   3443.4   7.5079 26352.9
 03 08 2016  08 08  -15.5017 26128.6   3443.4   7.5076 26354.5
 03 08 2016  08 09  -15.5018 26130.3   3444.5   7.5095 26356.3
 03 08 2016  08 10  -15.5033 26130.0   3443.8   7.5081 26355.9
 03 08 2016  08 11  -15.5050 26129.9   3443.5   7.5074 26355.8
 03 08 2016  08 12  -15.5062 26129.7   3442.7   7.5058 26355.5
 03 08 2016  08 13  -15.5072 26129.8   3443.5   7.5074 26355.7
 03 08 2016  08 14  -15.5089 26130.1   3443.2   7.5067 26355.9
 03 08 2016  08 15  -15.5100 26130.6   3443.0   7.5062 26356.5
 03 08 2016  08 16  -15.5111 26131.1   3444.2   7.5085 26357.1
 03 08 2016  08 17  -15.5118 26131.6   3444.1   7.5082 26357.6
 03 08 2016  08 18  -15.5112 26132.3   3444.2   7.5082 26358.3
 03 08 2016  08 19  -15.5118 26132.9   3444.2   7.5080 26358.9
 03 08 2016  08 20  -15.5132 26133.1   3444.2   7.5080 26359.1
 03 08 2016  08 21  -15.5122 26133.8   3445.0   7.5095 26359.9
 03 08 2016  08 22  -15.5137 26133.9   3444.6   7.5086 26359.9
 03 08 2016  08 23  -15.5146 26133.2   3443.3   7.5061 26359.0
 03 08 2016  08 24  -15.5144 26132.8   3443.3   7.5061 26358.6
 03 08 2016  08 25  -15.5160 26132.2   3443.1   7.5059 26358.1
 03 08 2016  08 26  -15.5161 26132.5   3442.9   7.5053 26358.3
 03 08 2016  08 27  -15.5163 26132.9   3443.7   7.5070 26358.8
 03 08 2016  08 28  -15.5169 26133.5   3444.8   7.5091 26359.5
 03 08 2016  08 29  -15.5164 26134.1   3444.9   7.5093 26360.2
 03 08 2016  08 30  -15.5179 26133.6   3443.9   7.5073 26359.5
 03 08 2016  08 31  -15.5180 26133.3   3443.3   7.5061 26359.2
 03 08 2016  08 32  -15.5187 26133.4   3443.5   7.5065 26359.3
 03 08 2016  08 33  -15.5192 26133.6   3443.3   7.5059 26359.4
 03 08 2016  08 34  -15.5192 26133.9   3444.0   7.5073 26359.9
 03 08 2016  08 35  -15.5197 26133.9   3443.7   7.5067 26359.8
 03 08 2016  08 36  -15.5198 26133.9   3444.0   7.5074 26359.8
 03 08 2016  08 37  -15.5199 26133.6   3443.8   7.5070 26359.6
 03 08 2016  08 38  -15.5203 26133.5   3443.6   7.5066 26359.4
 03 08 2016  08 39  -15.5196 26133.9   3443.5   7.5063 26359.8
 03 08 2016  08 40  -15.5195 26133.7   3444.2   7.5078 26359.7
 03 08 2016  08 41  -15.5194 26133.4   3444.1   7.5078 26359.4
 03 08 2016  08 42  -15.5203 26132.5   3443.7   7.5071 26358.5
 03 08 2016  08 43  -15.5204 26132.9   3443.9   7.5073 26358.9
 03 08 2016  08 44  -15.5196 26133.8   3444.5   7.5085 26359.9
 03 08 2016  08 45  -15.5186 26134.6   3444.5   7.5082 26360.6
 03 08 2016  08 46  -15.5182 26134.7   3444.8   7.5088 26360.8
 03 08 2016  08 47  -15.5173 26135.7   3445.3   7.5097 26361.8
 03 08 2016  08 48  -15.5167 26136.5   3446.1   7.5112 26362.8
 03 08 2016  08 49  -15.5172 26136.3   3446.1   7.5113 26362.5
 03 08 2016  08 50  -15.5180 26135.5   3444.6   7.5081 26361.5
 03 08 2016  08 51  -15.5191 26135.1   3444.7   7.5085 26361.2
 03 08 2016  08 52  -15.5197 26135.0   3445.3   7.5099 26361.1
 03 08 2016  08 53  -15.5198 26135.0   3444.5   7.5081 26361.0
 03 08 2016  08 54  -15.5197 26135.0   3444.2   7.5074 26361.0
 03 08 2016  08 55  -15.5201 26134.8   3444.9   7.5091 26360.8
 03 08 2016  08 56  -15.5210 26134.2   3444.4   7.5081 26360.2
 03 08 2016  08 57  -15.5213 26133.7   3443.6   7.5066 26359.6
 03 08 2016  08 58  -15.5212 26133.1   3444.0   7.5076 26359.1
 03 08 2016  08 59  -15.5232 26131.9   3443.5   7.5069 26357.8
 03 08 2016  09 00  -15.5233 26131.0   3443.7   7.5075 26356.9
 03 08 2016  09 01  -15.5223 26130.2   3442.6   7.5054 26356.0
 03 08 2016  09 02  -15.5206 26129.8   3443.4   7.5073 26355.7
 03 08 2016  09 03  -15.5199 26129.2   3443.7   7.5080 26355.2
 03 08 2016  09 04  -15.5186 26128.7   3443.9   7.5086 26354.6
 03 08 2016  09 05  -15.5180 26128.3   3443.9   7.5087 26354.3
 03 08 2016  09 06  -15.5171 26128.3   3444.1   7.5092 26354.4
 03 08 2016  09 07  -15.5173 26128.4   3444.4   7.5097 26354.5
 03 08 2016  09 08  -15.5181 26128.7   3444.6   7.5101 26354.8
 03 08 2016  09 09  -15.5188 26129.4   3445.0   7.5108 26355.5
 03 08 2016  09 10  -15.5199 26129.9   3445.3   7.5113 26356.1
 03 08 2016  09 11  -15.5210 26130.7   3445.7   7.5120 26356.9
 03 08 2016  09 12  -15.5226 26130.8   3445.7   7.5118 26357.0
 03 08 2016  09 13  -15.5234 26130.8   3445.6   7.5118 26357.0
 03 08 2016  09 14  -15.5249 26131.7   3446.3   7.5128 26358.0
 03 08 2016  09 15  -15.5268 26132.8   3446.6   7.5132 26359.1
 03 08 2016  09 16  -15.5287 26133.8   3447.0   7.5137 26360.1
 03 08 2016  09 17  -15.5304 26134.2   3447.3   7.5143 26360.6
 03 08 2016  09 18  -15.5317 26134.4   3447.0   7.5138 26360.8
 03 08 2016  09 19  -15.5330 26134.0   3446.5   7.5128 26360.3
 03 08 2016  09 20  -15.5336 26136.0   3448.0   7.5153 26362.5
 03 08 2016  09 21  -15.5346 26137.2   3448.0   7.5150 26363.7
 03 08 2016  09 22  -15.5343 26139.1   3449.0   7.5165 26365.7
 03 08 2016  09 23  -15.5346 26141.6   3449.9   7.5178 26368.3
 03 08 2016  09 24  -15.5350 26143.3   3450.7   7.5192 26370.0
 03 08 2016  09 25  -15.5356 26144.8   3451.2   7.5197 26371.6
 03 08 2016  09 26  -15.5374 26146.4   3450.3   7.5174 26373.1
 03 08 2016  09 27  -15.5384 26146.7   3449.7   7.5160 26373.2
 03 08 2016  09 28  -15.5386 26147.2   3449.6   7.5156 26373.8
 03 08 2016  09 29  -15.5395 26148.2   3450.7   7.5177 26374.9
 03 08 2016  09 30  -15.5388 26149.6   3450.4   7.5168 26376.2
 03 08 2016  09 31  -15.5387 26150.9   3450.6   7.5168 26377.6
 03 08 2016  09 32  -15.5386 26151.9   3451.5   7.5184 26378.6
 03 08 2016  09 33  -15.5383 26152.6   3452.1   7.5195 26379.5
 03 08 2016  09 34  -15.5383 26152.7   3451.6   7.5185 26379.5
 03 08 2016  09 35  -15.5371 26152.2   3451.3   7.5178 26378.9
 03 08 2016  09 36  -15.5348 26152.0   3450.7   7.5167 26378.7
 03 08 2016  09 37  -15.5337 26152.3   3451.3   7.5179 26379.0
 03 08 2016  09 38  -15.5323 26152.0   3451.7   7.5188 26378.8
 03 08 2016  09 39  -15.5316 26152.1   3451.1   7.5176 26378.8
 03 08 2016  09 40  -15.5300 26151.5   3451.0   7.5174 26378.2
 03 08 2016  09 41  -15.5285 26150.9   3451.1   7.5178 26377.6
 03 08 2016  09 42  -15.5286 26150.8   3451.8   7.5192 26377.6
 03 08 2016  09 43  -15.5286 26151.1   3451.7   7.5190 26377.9
 03 08 2016  09 44  -15.5280 26151.0   3452.4   7.5206 26377.9
 03 08 2016  09 45  -15.5271 26150.8   3453.3   7.5226 26377.8
 03 08 2016  09 46  -15.5263 26151.3   3453.5   7.5229 26378.4
 03 08 2016  09 47  -15.5261 26151.7   3453.9   7.5237 26378.8
 03 08 2016  09 48  -15.5267 26151.9   3453.8   7.5234 26378.9
 03 08 2016  09 49  -15.5276 26151.3   3453.6   7.5231 26378.4
 03 08 2016  09 50  -15.5273 26151.0   3454.2   7.5244 26378.1
 03 08 2016  09 51  -15.5273 26150.6   3454.1   7.5244 26377.7
 03 08 2016  09 52  -15.5281 26150.0   3454.2   7.5248 26377.1
 03 08 2016  09 53  -15.5293 26150.1   3454.5   7.5254 26377.3
 03 08 2016  09 54  -15.5301 26150.6   3455.0   7.5262 26377.8
 03 08 2016  09 55  -15.5306 26151.0   3455.5   7.5273 26378.4
 03 08 2016  09 56  -15.5312 26151.3   3456.1   7.5285 26378.7
 03 08 2016  09 57  -15.5305 26151.8   3456.5   7.5291 26379.2
 03 08 2016  09 58  -15.5299 26152.4   3457.1   7.5302 26379.9
 03 08 2016  09 59  -15.5300 26152.9   3457.2   7.5304 26380.5
 03 08 2016  10 00  -15.5309 26152.9   3457.0   7.5300 26380.4
 03 08 2016  10 01  -15.5307 26153.1   3457.1   7.5301 26380.6
 03 08 2016  10 02  -15.5303 26153.3   3457.3   7.5305 26380.8
 03 08 2016  10 03  -15.5306 26153.3   3457.2   7.5303 26380.8
 03 08 2016  10 04  -15.5301 26153.3   3457.3   7.5305 26380.8
 03 08 2016  10 05  -15.5284 26153.4   3457.6   7.5311 26380.9
 03 08 2016  10 06  -15.5278 26152.9   3457.3   7.5305 26380.4
 03 08 2016  10 07  -15.5268 26153.0   3457.0   7.5298 26380.5
 03 08 2016  10 08  -15.5262 26152.9   3457.5   7.5310 26380.5
 03 08 2016  10 09  -15.5261 26152.8   3456.7   7.5292 26380.3
 03 08 2016  10 10  -15.5253 26153.2   3457.0   7.5299 26380.7
 03 08 2016  10 11  -15.5242 26153.2   3457.1   7.5301 26380.7
 03 08 2016  10 12  -15.5250 26152.4   3455.8   7.5275 26379.7
 03 08 2016  10 13  -15.5248 26152.2   3456.3   7.5287 26379.6
 03 08 2016  10 14  -15.5249 26152.0   3455.8   7.5276 26379.3
 03 08 2016  10 15  -15.5252 26151.0   3455.3   7.5267 26378.3
 03 08 2016  10 16  -15.5262 26150.3   3454.8   7.5259 26377.5
 03 08 2016  10 17  -15.5259 26149.7   3455.3   7.5272 26377.0
 03 08 2016  10 18  -15.5253 26148.8   3455.1   7.5271 26376.1
 03 08 2016  10 19  -15.5248 26147.7   3455.2   7.5275 26375.0
 03 08 2016  10 20  -15.5246 26146.9   3455.0   7.5274 26374.2
 03 08 2016  10 21  -15.5250 26146.0   3455.5   7.5286 26373.3
 03 08 2016  10 22  -15.5256 26145.0   3455.1   7.5281 26372.3
 03 08 2016  10 23  -15.5259 26144.1   3455.4   7.5290 26371.4
 03 08 2016  10 24  -15.5258 26143.4   3455.8   7.5300 26370.8
 03 08 2016  10 25  -15.5257 26142.8   3456.3   7.5312 26370.3
 03 08 2016  10 26  -15.5264 26142.4   3456.5   7.5319 26369.9
 03 08 2016  10 27  -15.5279 26141.7   3456.7   7.5325 26369.2
 03 08 2016  10 28  -15.5283 26141.5   3457.2   7.5335 26369.1
 03 08 2016  10 29  -15.5281 26141.5   3457.8   7.5349 26369.1
 03 08 2016  10 30  -15.5288 26141.4   3458.6   7.5366 26369.2
 03 08 2016  10 31  -15.5283 26141.4   3458.5   7.5364 26369.2
 03 08 2016  10 32  -15.5265 26141.7   3459.2   7.5379 26369.6
 03 08 2016  10 33  -15.5259 26141.8   3459.3   7.5380 26369.7
 03 08 2016  10 34  -15.5254 26141.2   3458.9   7.5374 26369.1
 03 08 2016  10 35  -15.5252 26140.5   3458.6   7.5369 26368.3
 03 08 2016  10 36  -15.5251 26140.1   3458.8   7.5375 26368.0
 03 08 2016  10 37  -15.5252 26139.8   3458.8   7.5375 26367.6
 03 08 2016  10 38  -15.5253 26139.7   3459.2   7.5384 26367.6
 03 08 2016  10 39  -15.5242 26140.3   3460.2   7.5405 26368.3
 03 08 2016  10 40  -15.5228 26140.3   3460.4   7.5409 26368.4
 03 08 2016  10 41  -15.5205 26140.2   3460.7   7.5415 26368.2
 03 08 2016  10 42  -15.5194 26139.8   3460.9   7.5420 26367.9
 03 08 2016  10 43  -15.5185 26139.7   3460.9   7.5421 26367.8
 03 08 2016  10 44  -15.5168 26140.0   3461.6   7.5436 26368.2
 03 08 2016  10 45  -15.5161 26140.2   3460.8   7.5418 26368.3
 03 08 2016  10 46  -15.5164 26140.7   3461.3   7.5427 26368.8
 03 08 2016  10 47  -15.5163 26141.2   3461.0   7.5420 26369.3
 03 08 2016  10 48  -15.5154 26141.5   3461.2   7.5423 26369.7
 03 08 2016  10 49  -15.5144 26141.8   3461.3   7.5425 26370.0
 03 08 2016  10 50  -15.5137 26142.6   3462.2   7.5441 26370.9
 03 08 2016  10 51  -15.5146 26143.1   3461.2   7.5417 26371.2
 03 08 2016  10 52  -15.5157 26142.8   3460.7   7.5408 26370.9
 03 08 2016  10 53  -15.5147 26143.4   3461.6   7.5426 26371.6
 03 08 2016  10 54  -15.5136 26144.1   3461.7   7.5425 26372.3
 03 08 2016  10 55  -15.5148 26143.5   3461.5   7.5424 26371.7
 03 08 2016  10 56  -15.5167 26142.7   3461.1   7.5418 26370.8
 03 08 2016  10 57  -15.5169 26142.7   3461.3   7.5422 26370.8
 03 08 2016  10 58  -15.5159 26143.3   3461.8   7.5429 26371.5
 03 08 2016  10 59  -15.5157 26143.3   3462.8   7.5452 26371.6
 03 08 2016  11 00  -15.5158 26142.6   3462.7   7.5451 26371.0
 03 08 2016  11 01  -15.5164 26141.6   3461.8   7.5435 26369.8
 03 08 2016  11 02  -15.5172 26140.2   3461.3   7.5429 26368.4
 03 08 2016  11 03  -15.5171 26139.8   3461.7   7.5439 26368.0
 03 08 2016  11 04  -15.5168 26138.9   3462.4   7.5455 26367.2
 03 08 2016  11 05  -15.5163 26138.2   3462.4   7.5457 26366.5
 03 08 2016  11 06  -15.5156 26137.3   3462.7   7.5466 26365.7
 03 08 2016  11 07  -15.5152 26136.0   3462.7   7.5470 26364.4
 03 08 2016  11 08  -15.5155 26135.0   3463.0   7.5480 26363.4
 03 08 2016  11 09  -15.5154 26133.8   3463.0   7.5483 26362.3
 03 08 2016  11 10  -15.5151 26132.9   3463.3   7.5493 26361.4
 03 08 2016  11 11  -15.5127 26132.0   3463.7   7.5503 26360.5
 03 08 2016  11 12  -15.5112 26130.9   3463.8   7.5508 26359.5
 03 08 2016  11 13  -15.5103 26130.3   3464.0   7.5515 26358.9
 03 08 2016  11 14  -15.5105 26129.1   3463.9   7.5517 26357.7
 03 08 2016  11 15  -15.5102 26127.4   3463.7   7.5516 26356.0
 03 08 2016  11 16  -15.5104 26125.8   3463.7   7.5521 26354.4
 03 08 2016  11 17  -15.5096 26123.8   3463.2   7.5515 26352.4
 03 08 2016  11 18  -15.5089 26122.8   3463.4   7.5522 26351.4
 03 08 2016  11 19  -15.5091 26122.0   3463.6   7.5531 26350.6
 03 08 2016  11 20  -15.5082 26121.1   3464.2   7.5544 26349.8
 03 08 2016  11 21  -15.5063 26120.6   3464.5   7.5553 26349.3
 03 08 2016  11 22  -15.5031 26120.3   3465.3   7.5572 26349.2
 03 08 2016  11 23  -15.5016 26120.0   3465.6   7.5580 26348.9
 03 08 2016  11 24  -15.5001 26119.9   3465.6   7.5579 26348.8
 03 08 2016  11 25  -15.4992 26119.5   3465.5   7.5578 26348.4
 03 08 2016  11 26  -15.4977 26119.7   3465.4   7.5575 26348.5
 03 08 2016  11 27  -15.4972 26119.6   3464.7   7.5561 26348.4
 03 08 2016  11 28  -15.4980 26118.9   3464.3   7.5553 26347.7
 03 08 2016  11 29  -15.4978 26118.2   3464.0   7.5548 26346.9
 03 08 2016  11 30  -15.4982 26117.6   3463.8   7.5546 26346.3
 03 08 2016  11 31  -15.4997 26116.7   3463.1   7.5535 26345.3
 03 08 2016  11 32  -15.5003 26115.3   3463.5   7.5546 26344.0
 03 08 2016  11 33  -15.5005 26114.4   3462.8   7.5535 26343.0
 03 08 2016  11 34  -15.4993 26114.2   3464.1   7.5562 26343.0
 03 08 2016  11 35  -15.4984 26113.7   3464.4   7.5570 26342.5
 03 08 2016  11 36  -15.4981 26112.8   3464.5   7.5576 26341.6
 03 08 2016  11 37  -15.4983 26111.8   3463.9   7.5566 26340.6
 03 08 2016  11 38  -15.4985 26111.1   3464.7   7.5585 26340.0
 03 08 2016  11 39  -15.4987 26110.6   3464.7   7.5587 26339.5
 03 08 2016  11 40  -15.4988 26110.0   3464.3   7.5580 26338.9
 03 08 2016  11 41  -15.4990 26109.3   3464.4   7.5583 26338.2
 03 08 2016  11 42  -15.4990 26108.3   3464.8   7.5595 26337.2
 03 08 2016  11 43  -15.4984 26107.4   3464.1   7.5583 26336.2
 03 08 2016  11 44  -15.4984 26106.5   3464.9   7.5602 26335.4
 03 08 2016  11 45  -15.4986 26105.6   3465.7   7.5622 26334.7
 03 08 2016  11 46  -15.4987 26105.4   3465.8   7.5624 26334.5
 03 08 2016  11 47  -15.4986 26105.5   3466.5   7.5640 26334.6
 03 08 2016  11 48  -15.4995 26105.3   3467.2   7.5654 26334.6
 03 08 2016  11 49  -15.5002 26105.8   3467.7   7.5664 26335.1
 03 08 2016  11 50  -15.5003 26105.7   3467.6   7.5663 26335.0
 03 08 2016  11 51  -15.4999 26105.2   3468.0   7.5673 26334.6
 03 08 2016  11 52  -15.4993 26104.9   3468.4   7.5683 26334.3
 03 08 2016  11 53  -15.4999 26104.5   3468.2   7.5679 26333.9
 03 08 2016  11 54  -15.5005 26103.9   3467.5   7.5666 26333.2
 03 08 2016  11 55  -15.5003 26103.3   3467.5   7.5666 26332.6
 03 08 2016  11 56  -15.4998 26103.3   3468.2   7.5683 26332.7
 03 08 2016  11 57  -15.4997 26103.4   3467.5   7.5667 26332.7
 03 08 2016  11 58  -15.4998 26102.9   3467.8   7.5675 26332.3
 03 08 2016  11 59  -15.4990 26102.3   3467.8   7.5676 26331.7
 03 08 2016  12 00  -15.4987 26101.5   3467.7   7.5678 26330.8
 03 08 2016  12 01  -15.4980 26101.8   3468.3   7.5688 26331.2
 03 08 2016  12 02  -15.4970 26101.8   3468.6   7.5695 26331.3
 03 08 2016  12 03  -15.4955 26102.0   3468.7   7.5696 26331.4
 03 08 2016  12 04  -15.4936 26102.2   3468.9   7.5702 26331.7
 03 08 2016  12 05  -15.4923 26102.4   3469.1   7.5705 26331.9
 03 08 2016  12 06  -15.4916 26102.8   3468.8   7.5696 26332.2
 03 08 2016  12 07  -15.4906 26103.2   3468.7   7.5694 26332.6
 03 08 2016  12 08  -15.4893 26103.3   3467.8   7.5675 26332.7
 03 08 2016  12 09  -15.4886 26103.5   3468.4   7.5687 26332.9
 03 08 2016  12 10  -15.4873 26104.1   3468.1   7.5678 26333.5
 03 08 2016  12 11  -15.4864 26104.6   3467.4   7.5661 26333.9
 03 08 2016  12 12  -15.4861 26104.9   3467.3   7.5659 26334.2
 03 08 2016  12 13  -15.4852 26105.3   3467.5   7.5662 26334.6
 03 08 2016  12 14  -15.4835 26105.9   3467.8   7.5666 26335.2
 03 08 2016  12 15  -15.4811 26107.0   3467.4   7.5654 26336.2
 03 08 2016  12 16  -15.4824 26107.0   3465.9   7.5622 26336.1
 03 08 2016  12 17  -15.4841 26106.8   3465.0   7.5603 26335.7
 03 08 2016  12 18  -15.4850 26107.4   3464.6   7.5592 26336.2
 03 08 2016  12 19  -15.4852 26108.1   3464.5   7.5589 26337.0
 03 08 2016  12 20  -15.4859 26107.9   3464.0   7.5579 26336.7
 03 08 2016  12 21  -15.4869 26107.4   3464.4   7.5590 26336.2
 03 08 2016  12 22  -15.4878 26107.4   3463.5   7.5570 26336.1
 03 08 2016  12 23  -15.4885 26106.9   3463.4   7.5569 26335.6
 03 08 2016  12 24  -15.4898 26106.3   3462.5   7.5551 26334.9
 03 08 2016  12 25  -15.4915 26105.1   3462.1   7.5546 26333.7
 03 08 2016  12 26  -15.4921 26104.3   3462.3   7.5553 26333.0
 03 08 2016  12 27  -15.4924 26103.3   3462.7   7.5564 26332.0
 03 08 2016  12 28  -15.4924 26103.2   3463.4   7.5580 26332.0
 03 08 2016  12 29  -15.4921 26103.2   3463.1   7.5573 26331.9
 03 08 2016  12 30  -15.4924 26102.6   3462.9   7.5571 26331.3
 03 08 2016  12 31  -15.4919 26103.0   3463.7   7.5587 26331.8
 03 08 2016  12 32  -15.4907 26103.3   3464.7   7.5606 26332.3
 03 08 2016  12 33  -15.4885 26104.7   3465.6   7.5622 26333.7
 03 08 2016  12 34  -15.4857 26106.6   3466.0   7.5625 26335.7
 03 08 2016  12 35  -15.4847 26107.5   3465.1   7.5604 26336.4
 03 08 2016  12 36  -15.4836 26108.5   3464.6   7.5590 26337.3
 03 08 2016  12 37  -15.4831 26109.1   3464.3   7.5582 26337.9
 03 08 2016  12 38  -15.4829 26109.3   3462.9   7.5551 26337.9
 03 08 2016  12 39  -15.4830 26108.8   3461.7   7.5525 26337.3
 03 08 2016  12 40  -15.4836 26108.4   3461.7   7.5528 26336.9
 03 08 2016  12 41  -15.4855 26108.3   3460.9   7.5510 26336.7
 03 08 2016  12 42  -15.4859 26108.7   3461.5   7.5523 26337.2
 03 08 2016  12 43  -15.4860 26109.9   3461.8   7.5525 26338.4
 03 08 2016  12 44  -15.4871 26109.6   3461.1   7.5511 26338.0
 03 08 2016  12 45  -15.4893 26108.3   3459.8   7.5488 26336.5
 03 08 2016  12 46  -15.4912 26107.7   3460.1   7.5496 26336.0
 03 08 2016  12 47  -15.4929 26106.8   3460.7   7.5512 26335.2
 03 08 2016  12 48  -15.4936 26107.2   3461.3   7.5522 26335.6
 03 08 2016  12 49  -15.4941 26107.1   3461.7   7.5531 26335.6
 03 08 2016  12 50  -15.4941 26106.9   3462.2   7.5543 26335.5
 03 08 2016  12 51  -15.4944 26107.8   3463.0   7.5557 26336.5
 03 08 2016  12 52  -15.4936 26108.5   3462.8   7.5551 26337.1
 03 08 2016  12 53  -15.4935 26108.7   3462.7   7.5547 26337.3
 03 08 2016  12 54  -15.4942 26108.3   3462.5   7.5544 26336.9
 03 08 2016  12 55  -15.4943 26108.5   3462.3   7.5541 26337.1
 03 08 2016  12 56  -15.4921 26109.4   3463.8   7.5569 26338.1
 03 08 2016  12 57  -15.4913 26110.4   3463.8   7.5568 26339.2
 03 08 2016  12 58  -15.4902 26111.5   3463.5   7.5557 26340.2
 03 08 2016  12 59  -15.4893 26111.8   3462.9   7.5544 26340.5
 03 08 2016  13 00  -15.4888 26111.4   3462.1   7.5528 26339.9
 03 08 2016  13 01  -15.4895 26110.5   3460.3   7.5492 26338.8
 03 08 2016  13 02  -15.4891 26109.4   3460.1   7.5491 26337.7
 03 08 2016  13 03  -15.4878 26109.5   3460.7   7.5503 26337.8
 03 08 2016  13 04  -15.4868 26110.1   3460.9   7.5505 26338.5
 03 08 2016  13 05  -15.4855 26109.9   3460.7   7.5502 26338.3
 03 08 2016  13 06  -15.4859 26108.4   3459.5   7.5481 26336.6
 03 08 2016  13 07  -15.4863 26106.1   3458.2   7.5458 26334.1
 03 08 2016  13 08  -15.4850 26106.6   3459.5   7.5485 26334.9
 03 08 2016  13 09  -15.4829 26109.3   3461.6   7.5524 26337.8
 03 08 2016  13 10  -15.4826 26110.8   3461.3   7.5512 26339.2
 03 08 2016  13 11  -15.4824 26110.8   3460.8   7.5501 26339.2
 03 08 2016  13 12  -15.4824 26110.4   3460.0   7.5485 26338.7
 03 08 2016  13 13  -15.4831 26109.7   3459.4   7.5474 26337.8
 03 08 2016  13 14  -15.4836 26109.1   3458.8   7.5463 26337.2
 03 08 2016  13 15  -15.4836 26108.9   3459.6   7.5481 26337.1
 03 08 2016  13 16  -15.4843 26108.3   3459.2   7.5473 26336.5
 03 08 2016  13 17  -15.4840 26108.1   3459.9   7.5491 26336.4
 03 08 2016  13 18  -15.4834 26108.2   3460.5   7.5503 26336.6
 03 08 2016  13 19  -15.4856 26105.5   3459.0   7.5478 26333.7
 03 08 2016  13 20  -15.4909 26099.5   3456.0   7.5430 26327.3
 03 08 2016  13 21  -15.4947 26093.9   3455.9   7.5445 26321.8
 03 08 2016  13 22  -15.4956 26091.0   3458.8   7.5515 26319.2
 03 08 2016  13 23  -15.4952 26090.6   3461.6   7.5576 26319.3
 03 08 2016  13 24  -15.4944 26090.9   3464.7   7.5642 26320.0
 03 08 2016  13 25  -15.4932 26090.6   3466.3   7.5678 26319.8
 03 08 2016  13 26  -15.4926 26089.2   3466.8   7.5694 26318.5
 03 08 2016  13 27  -15.4927 26089.2   3469.0   7.5740 26318.8
 03 08 2016  13 28  -15.4926 26089.2   3469.8   7.5758 26318.9
 03 08 2016  13 29  -15.4929 26089.4   3470.2   7.5766 26319.2
 03 08 2016  13 30  -15.4926 26091.2   3471.2   7.5783 26321.1
 03 08 2016  13 31  -15.4933 26092.9   3472.3   7.5801 26322.9
 03 08 2016  13 32  -15.4935 26094.0   3472.4   7.5799 26324.0
 03 08 2016  13 33  -15.4936 26095.5   3472.7   7.5801 26325.6
 03 08 2016  13 34  -15.4939 26097.7   3472.7   7.5796 26327.8
 03 08 2016  13 35  -15.4930 26098.8   3472.1   7.5779 26328.8
 03 08 2016  13 36  -15.4932 26099.3   3471.6   7.5766 26329.2
 03 08 2016  13 37  -15.4937 26100.4   3470.8   7.5746 26330.2
 03 08 2016  13 38  -15.4941 26101.5   3471.2   7.5753 26331.4
 03 08 2016  13 39  -15.4943 26102.5   3471.1   7.5746 26332.3
 03 08 2016  13 40  -15.4955 26102.7   3470.2   7.5727 26332.3
 03 08 2016  13 41  -15.4961 26102.4   3469.4   7.5710 26332.0
 03 08 2016  13 42  -15.4972 26101.8   3469.5   7.5716 26331.4
 03 08 2016  13 43  -15.4990 26101.6   3468.6   7.5697 26331.1
 03 08 2016  13 44  -15.5004 26101.5   3469.1   7.5707 26331.0
 03 08 2016  13 45  -15.5011 26102.1   3469.8   7.5722 26331.7
 03 08 2016  13 46  -15.5023 26102.8   3470.1   7.5726 26332.4
 03 08 2016  13 47  -15.5037 26103.0   3470.1   7.5725 26332.6
 03 08 2016  13 48  -15.5043 26103.0   3470.1   7.5724 26332.7
 03 08 2016  13 49  -15.5050 26103.0   3470.0   7.5723 26332.6
 03 08 2016  13 50  -15.5056 26102.5   3469.6   7.5714 26332.1
 03 08 2016  13 51  -15.5062 26101.7   3469.2   7.5709 26331.2
 03 08 2016  13 52  -15.5067 26100.7   3469.4   7.5716 26330.2
 03 08 2016  13 53  -15.5061 26100.3   3469.7   7.5722 26330.0
 03 08 2016  13 54  -15.5059 26100.4   3470.3   7.5735 26330.1
 03 08 2016  13 55  -15.5051 26100.4   3470.3   7.5735 26330.1
 03 08 2016  13 56  -15.5046 26100.9   3470.4   7.5736 26330.6
 03 08 2016  13 57  -15.5046 26101.0   3470.4   7.5737 26330.7
 03 08 2016  13 58  -15.5054 26101.3   3470.2   7.5732 26331.0
 03 08 2016  13 59  -15.5057 26101.6   3470.1   7.5728 26331.2
 03 08 2016  14 00  -15.5059 26102.0   3469.9   7.5724 26331.6
 03 08 2016  14 01  -15.5061 26102.3   3469.8   7.5719 26331.9
 03 08 2016  14 02  -15.5065 26102.3   3469.3   7.5708 26331.8
 03 08 2016  14 03  -15.5065 26102.6   3469.2   7.5705 26332.1
 03 08 2016  14 04  -15.5068 26102.7   3468.9   7.5699 26332.1
 03 08 2016  14 05  -15.5077 26102.5   3468.2   7.5685 26331.9
 03 08 2016  14 06  -15.5076 26102.7   3468.1   7.5681 26332.1
 03 08 2016  14 07  -15.5074 26102.6   3467.7   7.5674 26331.9
 03 08 2016  14 08  -15.5074 26102.3   3467.6   7.5672 26331.7
 03 08 2016  14 09  -15.5081 26101.8   3466.8   7.5657 26331.1
 03 08 2016  14 10  -15.5079 26101.9   3466.8   7.5657 26331.1
 03 08 2016  14 11  -15.5081 26102.2   3466.4   7.5647 26331.3
 03 08 2016  14 12  -15.5080 26103.2   3467.0   7.5657 26332.5
 03 08 2016  14 13  -15.5082 26103.8   3465.8   7.5629 26332.9
 03 08 2016  14 14  -15.5071 26105.0   3465.6   7.5621 26334.0
 03 08 2016  14 15  -15.5076 26105.7   3465.0   7.5606 26334.7
 03 08 2016  14 16  -15.5084 26105.2   3463.9   7.5584 26334.0
 03 08 2016  14 17  -15.5085 26105.5   3463.2   7.5568 26334.2
 03 08 2016  14 18  -15.5079 26106.8   3462.7   7.5554 26335.4
 03 08 2016  14 19  -15.5063 26108.7   3462.2   7.5537 26337.3
 03 08 2016  14 20  -15.5051 26110.5   3461.9   7.5526 26339.0
 03 08 2016  14 21  -15.5045 26112.2   3460.9   7.5500 26340.6
 03 08 2016  14 22  -15.5042 26113.9   3459.4   7.5463 26342.0
 03 08 2016  14 23  -15.5045 26114.8   3457.7   7.5423 26342.7
 03 08 2016  14 24  -15.5058 26115.0   3455.8   7.5382 26342.6
 03 08 2016  14 25  -15.5069 26114.4   3454.6   7.5358 26341.9
 03 08 2016  14 26  -15.5077 26114.0   3453.1   7.5326 26341.3
 03 08 2016  14 27  -15.5078 26113.3   3452.4   7.5314 26340.6
 03 08 2016  14 28  -15.5072 26113.5   3451.9   7.5302 26340.7
 03 08 2016  14 29  -15.5067 26114.2   3452.0   7.5301 26341.4
 03 08 2016  14 30  -15.5058 26115.6   3452.5   7.5308 26342.8
 03 08 2016  14 31  -15.5051 26117.3   3452.1   7.5295 26344.4
 03 08 2016  14 32  -15.5040 26120.1   3452.2   7.5290 26347.2
 03 08 2016  14 33  -15.5034 26121.7   3451.5   7.5269 26348.7
 03 08 2016  14 34  -15.5031 26121.5   3449.3   7.5223 26348.2
 03 08 2016  14 35  -15.5030 26121.6   3448.2   7.5199 26348.2
 03 08 2016  14 36  -15.5032 26121.1   3447.2   7.5179 26347.6
 03 08 2016  14 37  -15.5031 26120.9   3446.5   7.5164 26347.3
 03 08 2016  14 38  -15.5025 26121.4   3446.4   7.5161 26347.8
 03 08 2016  14 39  -15.5027 26122.3   3446.3   7.5155 26348.6
 03 08 2016  14 40  -15.5030 26121.9   3445.3   7.5135 26348.1
 03 08 2016  14 41  -15.5038 26120.8   3443.6   7.5102 26346.8
 03 08 2016  14 42  -15.5039 26120.6   3444.2   7.5116 26346.7
 03 08 2016  14 43  -15.5041 26120.9   3443.8   7.5105 26346.9
 03 08 2016  14 44  -15.5046 26120.4   3443.7   7.5106 26346.4
 03 08 2016  14 45  -15.5050 26120.1   3443.1   7.5092 26346.1
 03 08 2016  14 46  -15.5068 26120.2   3443.1   7.5093 26346.1
 03 08 2016  14 47  -15.5078 26120.3   3443.5   7.5101 26346.3
 03 08 2016  14 48  -15.5087 26120.5   3443.2   7.5094 26346.4
 03 08 2016  14 49  -15.5089 26120.9   3443.1   7.5090 26346.8
 03 08 2016  14 50  -15.5089 26121.7   3443.4   7.5094 26347.7
 03 08 2016  14 51  -15.5091 26122.3   3442.8   7.5080 26348.2
 03 08 2016  14 52  -15.5092 26123.2   3442.3   7.5067 26349.0
 03 08 2016  14 53  -15.5091 26124.4   3442.0   7.5058 26350.1
 03 08 2016  14 54  -15.5093 26125.3   3441.4   7.5042 26351.0
 03 08 2016  14 55  -15.5091 26127.1   3441.4   7.5036 26352.8
 03 08 2016  14 56  -15.5095 26128.5   3440.8   7.5019 26354.1
 03 08 2016  14 57  -15.5097 26129.2   3439.5   7.4990 26354.6
 03 08 2016  14 58  -15.5104 26129.8   3438.6   7.4968 26355.1
 03 08 2016  14 59  -15.5112 26129.9   3437.5   7.4945 26355.1
 03 08 2016  15 00  -15.5117 26129.7   3436.8   7.4930 26354.8
 03 08 2016  15 01  -15.5121 26129.8   3435.9   7.4912 26354.7
 03 08 2016  15 02  -15.5126 26130.5   3435.9   7.4909 26355.4
 03 08 2016  15 03  -15.5129 26130.8   3435.8   7.4905 26355.7
 03 08 2016  15 04  -15.5135 26130.7   3435.4   7.4898 26355.6
 03 08 2016  15 05  -15.5141 26131.0   3435.4   7.4896 26355.8
 03 08 2016  15 06  -15.5146 26132.1   3436.0   7.4906 26357.1
 03 08 2016  15 07  -15.5151 26133.6   3435.3   7.4887 26358.4
 03 08 2016  15 08  -15.5162 26133.9   3435.1   7.4881 26358.7
 03 08 2016  15 09  -15.5169 26134.2   3433.9   7.4854 26358.9
 03 08 2016  15 10  -15.5178 26134.7   3434.2   7.4860 26359.3
 03 08 2016  15 11  -15.5185 26135.0   3433.2   7.4838 26359.6
 03 08 2016  15 12  -15.5195 26135.4   3432.7   7.4826 26359.9
 03 08 2016  15 13  -15.5213 26134.7   3431.3   7.4797 26358.9
 03 08 2016  15 14  -15.5222 26133.7   3430.6   7.4786 26357.9
 03 08 2016  15 15  -15.5229 26133.1   3430.6   7.4786 26357.3
 03 08 2016  15 16  -15.5233 26132.2   3430.5   7.4788 26356.4
 03 08 2016  15 17  -15.5235 26132.2   3431.1   7.4800 26356.4
 03 08 2016  15 18  -15.5242 26133.0   3431.6   7.4809 26357.3
 03 08 2016  15 19  -15.5253 26133.3   3431.7   7.4811 26357.7
 03 08 2016  15 20  -15.5266 26133.5   3431.8   7.4811 26357.9
 03 08 2016  15 21  -15.5273 26134.0   3432.4   7.4823 26358.5
 03 08 2016  15 22  -15.5276 26134.2   3432.6   7.4826 26358.7
 03 08 2016  15 23  -15.5288 26133.6   3431.5   7.4806 26357.9
 03 08 2016  15 24  -15.5299 26132.5   3431.6   7.4811 26356.8
 03 08 2016  15 25  -15.5313 26131.3   3431.9   7.4820 26355.7
 03 08 2016  15 26  -15.5314 26131.7   3432.7   7.4835 26356.2
 03 08 2016  15 27  -15.5318 26131.9   3432.7   7.4836 26356.4
 03 08 2016  15 28  -15.5320 26131.8   3433.6   7.4855 26356.5
 03 08 2016  15 29  -15.5319 26132.3   3433.5   7.4851 26356.9
 03 08 2016  15 30  -15.5317 26133.3   3434.3   7.4866 26358.0
 03 08 2016  15 31  -15.5321 26134.3   3434.7   7.4871 26359.1
 03 08 2016  15 32  -15.5336 26135.7   3435.4   7.4882 26360.5
 03 08 2016  15 33  -15.5342 26135.4   3433.9   7.4851 26360.1
 03 08 2016  15 34  -15.5353 26133.0   3432.3   7.4824 26357.4
 03 08 2016  15 35  -15.5353 26131.0   3431.8   7.4819 26355.4
 03 08 2016  15 36  -15.5355 26130.6   3432.2   7.4828 26355.0
 03 08 2016  15 37  -15.5357 26129.9   3432.8   7.4843 26354.4
 03 08 2016  15 38  -15.5365 26129.4   3432.7   7.4843 26353.9
 03 08 2016  15 39  -15.5372 26129.4   3432.9   7.4848 26354.0
 03 08 2016  15 40  -15.5387 26129.0   3432.7   7.4844 26353.6
 03 08 2016  15 41  -15.5395 26128.3   3432.7   7.4847 26352.8
 03 08 2016  15 42  -15.5404 26127.1   3432.7   7.4850 26351.6
 03 08 2016  15 43  -15.5416 26126.7   3433.2   7.4862 26351.3
 03 08 2016  15 44  -15.5426 26127.2   3434.2   7.4882 26351.9
 03 08 2016  15 45  -15.5432 26127.8   3434.2   7.4880 26352.5
 03 08 2016  15 46  -15.5444 26127.4   3434.7   7.4892 26352.2
 03 08 2016  15 47  -15.5445 26126.8   3434.6   7.4892 26351.6
 03 08 2016  15 48  -15.5442 26126.2   3435.3   7.4907 26351.1
 03 08 2016  15 49  -15.5444 26127.2   3436.0   7.4921 26352.1
 03 08 2016  15 50  -15.5442 26129.3   3437.8   7.4954 26354.5
 03 08 2016  15 51  -15.5442 26131.2   3437.6   7.4943 26356.3
 03 08 2016  15 52  -15.5444 26131.8   3437.2   7.4933 26356.9
 03 08 2016  15 53  -15.5441 26132.5   3436.8   7.4922 26357.5
 03 08 2016  15 54  -15.5443 26133.2   3435.7   7.4896 26358.1
 03 08 2016  15 55  -15.5444 26134.1   3435.3   7.4885 26358.9
 03 08 2016  15 56  -15.5437 26135.3   3435.7   7.4890 26360.1
 03 08 2016  15 57  -15.5441 26136.0   3435.3   7.4879 26360.8
 03 08 2016  15 58  -15.5437 26136.9   3434.4   7.4859 26361.6
 03 08 2016  15 59  -15.5434 26137.1   3434.8   7.4865 26361.8
 03 08 2016  16 00  -15.5433 26137.2   3433.7   7.4842 26361.8
 03 08 2016  16 01  -15.5426 26137.8   3434.2   7.4851 26362.5
 03 08 2016  16 02  -15.5429 26139.3   3434.6   7.4856 26364.0
 03 08 2016  16 03  -15.5427 26141.1   3434.5   7.4848 26365.7
 03 08 2016  16 04  -15.5426 26142.7   3434.2   7.4838 26367.3
 03 08 2016  16 05  -15.5426 26143.8   3434.0   7.4829 26368.4
 03 08 2016  16 06  -15.5427 26144.0   3433.1   7.4811 26368.5
 03 08 2016  16 07  -15.5424 26145.2   3432.7   7.4797 26369.6
 03 08 2016  16 08  -15.5423 26146.6   3431.9   7.4776 26370.8
 03 08 2016  16 09  -15.5415 26147.8   3431.8   7.4772 26372.1
 03 08 2016  16 10  -15.5408 26148.8   3431.0   7.4751 26372.9
 03 08 2016  16 11  -15.5406 26149.7   3430.1   7.4730 26373.7
 03 08 2016  16 12  -15.5395 26150.8   3429.2   7.4708 26374.7
 03 08 2016  16 13  -15.5395 26153.6   3429.1   7.4697 26377.5
 03 08 2016  16 14  -15.5393 26156.5   3429.1   7.4688 26380.3
 03 08 2016  16 15  -15.5392 26157.3   3427.3   7.4647 26380.8
 03 08 2016  16 16  -15.5385 26155.5   3424.8   7.4600 26378.7
 03 08 2016  16 17  -15.5388 26154.0   3422.4   7.4551 26377.0
 03 08 2016  16 18  -15.5392 26152.7   3422.1   7.4549 26375.7
 03 08 2016  16 19  -15.5383 26151.8   3422.4   7.4557 26374.8
 03 08 2016  16 20  -15.5383 26152.1   3421.9   7.4545 26375.0
 03 08 2016  16 21  -15.5369 26153.6   3422.3   7.4550 26376.5
 03 08 2016  16 22  -15.5368 26154.3   3422.5   7.4553 26377.3
 03 08 2016  16 23  -15.5373 26154.3   3421.6   7.4532 26377.1
 03 08 2016  16 24  -15.5381 26153.2   3420.3   7.4509 26375.9
 03 08 2016  16 25  -15.5380 26152.1   3419.8   7.4501 26374.8
 03 08 2016  16 26  -15.5380 26151.9   3420.1   7.4507 26374.6
 03 08 2016  16 27  -15.5379 26152.4   3419.8   7.4500 26375.0
 03 08 2016  16 28  -15.5377 26152.9   3419.5   7.4492 26375.5
 03 08 2016  16 29  -15.5367 26153.1   3418.9   7.4479 26375.7
 03 08 2016  16 30  -15.5364 26153.5   3418.6   7.4472 26376.0
 03 08 2016  16 31  -15.5361 26154.3   3418.3   7.4462 26376.7
 03 08 2016  16 32  -15.5357 26155.4   3418.4   7.4462 26377.8
 03 08 2016  16 33  -15.5362 26156.5   3417.7   7.4443 26378.9
 03 08 2016  16 34  -15.5368 26156.7   3417.4   7.4436 26379.0
 03 08 2016  16 35  -15.5374 26156.5   3416.4   7.4415 26378.7
 03 08 2016  16 36  -15.5378 26156.3   3416.0   7.4408 26378.4
 03 08 2016  16 37  -15.5378 26156.2   3415.0   7.4386 26378.1
 03 08 2016  16 38  -15.5381 26156.2   3414.8   7.4382 26378.2
 03 08 2016  16 39  -15.5382 26156.2   3414.8   7.4381 26378.2
 03 08 2016  16 40  -15.5384 26155.8   3414.0   7.4365 26377.7
 03 08 2016  16 41  -15.5392 26155.5   3413.9   7.4363 26377.3
 03 08 2016  16 42  -15.5395 26155.3   3412.7   7.4340 26377.0
 03 08 2016  16 43  -15.5396 26155.3   3412.6   7.4336 26377.0
 03 08 2016  16 44  -15.5399 26154.3   3412.4   7.4335 26375.9
 03 08 2016  16 45  -15.5400 26152.8   3411.4   7.4318 26374.3
 03 08 2016  16 46  -15.5401 26151.5   3411.2   7.4318 26373.1
 03 08 2016  16 47  -15.5404 26151.2   3411.7   7.4329 26372.8
 03 08 2016  16 48  -15.5406 26151.2   3411.7   7.4328 26372.8
 03 08 2016  16 49  -15.5409 26150.3   3410.9   7.4315 26371.8
 03 08 2016  16 50  -15.5406 26149.2   3410.9   7.4317 26370.7
 03 08 2016  16 51  -15.5413 26148.5   3411.8   7.4338 26370.1
 03 08 2016  16 52  -15.5418 26147.7   3412.2   7.4349 26369.5
 03 08 2016  16 53  -15.5418 26146.8   3412.4   7.4356 26368.6
 03 08 2016  16 54  -15.5418 26145.8   3411.6   7.4341 26367.4
 03 08 2016  16 55  -15.5418 26144.7   3412.2   7.4358 26366.4
 03 08 2016  16 56  -15.5420 26144.2   3413.0   7.4376 26366.0
 03 08 2016  16 57  -15.5414 26144.2   3413.2   7.4380 26366.1
 03 08 2016  16 58  -15.5413 26143.5   3413.0   7.4379 26365.4
 03 08 2016  16 59  -15.5415 26143.8   3413.9   7.4397 26365.7
 03 08 2016  17 00  -15.5412 26144.9   3413.7   7.4390 26366.9
 03 08 2016  17 01  -15.5406 26145.1   3414.0   7.4396 26367.1
 03 08 2016  17 02  -15.5410 26143.9   3413.1   7.4378 26365.7
 03 08 2016  17 03  -15.5411 26142.9   3413.1   7.4383 26364.7
 03 08 2016  17 04  -15.5418 26141.4   3412.0   7.4362 26363.2
 03 08 2016  17 05  -15.5410 26141.1   3412.6   7.4377 26363.0
 03 08 2016  17 06  -15.5412 26140.5   3412.3   7.4371 26362.3
 03 08 2016  17 07  -15.5407 26139.8   3412.8   7.4384 26361.7
 03 08 2016  17 08  -15.5406 26140.1   3413.0   7.4389 26362.0
 03 08 2016  17 09  -15.5404 26140.0   3413.3   7.4395 26361.9
 03 08 2016  17 10  -15.5408 26139.5   3412.2   7.4372 26361.2
 03 08 2016  17 11  -15.5411 26138.5   3412.7   7.4387 26360.3
 03 08 2016  17 12  -15.5414 26138.1   3412.2   7.4377 26359.9
 03 08 2016  17 13  -15.5418 26136.2   3411.1   7.4358 26357.9
 03 08 2016  17 14  -15.5417 26136.4   3412.0   7.4376 26358.2
 03 08 2016  17 15  -15.5411 26135.2   3411.5   7.4369 26356.9
 03 08 2016  17 16  -15.5414 26134.3   3411.5   7.4373 26356.0
 03 08 2016  17 17  -15.5416 26131.7   3409.7   7.4341 26353.2
 03 08 2016  17 18  -15.5409 26129.5   3409.5   7.4342 26351.1
 03 08 2016  17 19  -15.5407 26127.6   3410.3   7.4364 26349.3
 03 08 2016  17 20  -15.5411 26125.7   3410.6   7.4377 26347.4
 03 08 2016  17 21  -15.5412 26125.1   3411.1   7.4388 26346.8
 03 08 2016  17 22  -15.5403 26125.3   3411.8   7.4405 26347.1
 03 08 2016  17 23  -15.5401 26125.5   3412.8   7.4425 26347.5
 03 08 2016  17 24  -15.5394 26126.9   3413.9   7.4444 26349.0
 03 08 2016  17 25  -15.5396 26127.8   3413.8   7.4439 26349.8
 03 08 2016  17 26  -15.5399 26128.1   3413.3   7.4428 26350.1
 03 08 2016  17 27  -15.5400 26129.4   3414.0   7.4439 26351.5
 03 08 2016  17 28  -15.5407 26129.5   3414.0   7.4440 26351.6
 03 08 2016  17 29  -15.5414 26128.6   3413.6   7.4432 26350.7
 03 08 2016  17 30  -15.5412 26127.7   3413.1   7.4426 26349.7
 03 08 2016  17 31  -15.5412 26128.5   3413.7   7.4435 26350.6
 03 08 2016  17 32  -15.5417 26129.3   3414.6   7.4452 26351.5
 03 08 2016  17 33  -15.5428 26129.3   3414.7   7.4455 26351.5
 03 08 2016  17 34  -15.5433 26127.8   3413.6   7.4436 26349.8
 03 08 2016  17 35  -15.5431 26128.7   3415.0   7.4462 26350.9
 03 08 2016  17 36  -15.5443 26129.9   3415.6   7.4472 26352.2
 03 08 2016  17 37  -15.5448 26131.2   3416.4   7.4486 26353.5
 03 08 2016  17 38  -15.5447 26131.4   3416.0   7.4477 26353.7
 03 08 2016  17 39  -15.5435 26129.6   3415.6   7.4473 26351.9
 03 08 2016  17 40  -15.5424 26129.7   3416.5   7.4492 26352.1
 03 08 2016  17 41  -15.5419 26130.1   3416.9   7.4499 26352.6
 03 08 2016  17 42  -15.5414 26130.4   3417.9   7.4521 26352.9
 03 08 2016  17 43  -15.5410 26131.9   3418.3   7.4526 26354.5
 03 08 2016  17 44  -15.5405 26134.3   3419.4   7.4542 26357.1
 03 08 2016  17 45  -15.5413 26136.4   3420.1   7.4552 26359.2
 03 08 2016  17 46  -15.5424 26137.1   3419.1   7.4527 26359.8
 03 08 2016  17 47  -15.5424 26137.3   3418.6   7.4516 26359.9
 03 08 2016  17 48  -15.5416 26136.8   3418.1   7.4506 26359.4
 03 08 2016  17 49  -15.5414 26135.7   3417.0   7.4485 26358.1
 03 08 2016  17 50  -15.5411 26135.5   3417.1   7.4489 26357.9
 03 08 2016  17 51  -15.5416 26136.0   3417.6   7.4499 26358.5
 03 08 2016  17 52  -15.5421 26136.4   3417.2   7.4489 26358.9
 03 08 2016  17 53  -15.5420 26135.4   3417.2   7.4492 26357.9
 03 08 2016  17 54  -15.5421 26134.7   3416.5   7.4479 26357.0
 03 08 2016  17 55  -15.5418 26134.1   3417.0   7.4490 26356.5
 03 08 2016  17 56  -15.5415 26132.8   3417.0   7.4496 26355.2
 03 08 2016  17 57  -15.5409 26131.6   3416.9   7.4496 26354.1
 03 08 2016  17 58  -15.5404 26130.7   3417.2   7.4506 26353.2
 03 08 2016  17 59  -15.5395 26129.7   3417.9   7.4522 26352.3
 03 08 2016  18 00  -15.5394 26128.8   3418.6   7.4541 26351.5
 03 08 2016  18 01  -15.5388 26127.5   3419.0   7.4553 26350.2
 03 08 2016  18 02  -15.5378 26125.9   3419.0   7.4557 26348.6
 03 08 2016  18 03  -15.5371 26124.5   3419.9   7.4581 26347.4
 03 08 2016  18 04  -15.5363 26123.5   3420.5   7.4596 26346.5
 03 08 2016  18 05  -15.5364 26122.8   3421.1   7.4612 26345.9
 03 08 2016  18 06  -15.5367 26121.8   3421.4   7.4621 26344.9
 03 08 2016  18 07  -15.5367 26120.7   3421.5   7.4627 26343.8
 03 08 2016  18 08  -15.5359 26119.9   3422.3   7.4646 26343.1
 03 08 2016  18 09  -15.5358 26118.7   3422.7   7.4657 26342.0
 03 08 2016  18 10  -15.5362 26118.9   3423.7   7.4679 26342.3
 03 08 2016  18 11  -15.5358 26119.3   3424.1   7.4686 26342.8
 03 08 2016  18 12  -15.5349 26119.9   3425.0   7.4703 26343.5
 03 08 2016  18 13  -15.5344 26120.1   3426.0   7.4724 26343.8
 03 08 2016  18 14  -15.5348 26120.9   3426.7   7.4738 26344.8
 03 08 2016  18 15  -15.5349 26122.3   3427.1   7.4743 26346.2
 03 08 2016  18 16  -15.5361 26122.8   3427.3   7.4744 26346.7
 03 08 2016  18 17  -15.5364 26122.7   3427.4   7.4747 26346.5
 03 08 2016  18 18  -15.5366 26122.4   3426.5   7.4728 26346.2
 03 08 2016  18 19  -15.5371 26122.2   3427.3   7.4747 26346.0
 03 08 2016  18 20  -15.5375 26122.2   3427.1   7.4743 26346.0
 03 08 2016  18 21  -15.5383 26122.3   3426.5   7.4730 26346.0
 03 08 2016  18 22  -15.5382 26122.3   3426.9   7.4737 26346.1
 03 08 2016  18 23  -15.5374 26122.5   3426.8   7.4734 26346.3
 03 08 2016  18 24  -15.5373 26122.7   3427.3   7.4746 26346.6
 03 08 2016  18 25  -15.5374 26122.9   3426.9   7.4736 26346.8
 03 08 2016  18 26  -15.5374 26123.1   3427.0   7.4737 26346.9
 03 08 2016  18 27  -15.5375 26123.2   3427.1   7.4739 26347.1
 03 08 2016  18 28  -15.5369 26123.1   3427.6   7.4751 26347.0
 03 08 2016  18 29  -15.5367 26122.8   3427.5   7.4750 26346.7
 03 08 2016  18 30  -15.5363 26122.3   3427.5   7.4751 26346.2
 03 08 2016  18 31  -15.5362 26122.0   3427.0   7.4740 26345.8
 03 08 2016  18 32  -15.5359 26122.2   3427.1   7.4743 26346.0
 03 08 2016  18 33  -15.5357 26122.3   3427.7   7.4754 26346.2
 03 08 2016  18 34  -15.5360 26122.7   3428.2   7.4764 26346.7
 03 08 2016  18 35  -15.5363 26123.1   3428.1   7.4762 26347.0
 03 08 2016  18 36  -15.5359 26123.8   3428.7   7.4772 26347.9
 03 08 2016  18 37  -15.5366 26124.5   3428.5   7.4765 26348.5
 03 08 2016  18 38  -15.5360 26124.5   3428.0   7.4756 26348.5
 03 08 2016  18 39  -15.5356 26123.4   3427.4   7.4745 26347.3
 03 08 2016  18 40  -15.5347 26123.1   3427.2   7.4742 26346.9
 03 08 2016  18 41  -15.5343 26122.6   3427.7   7.4755 26346.6
 03 08 2016  18 42  -15.5340 26122.5   3427.6   7.4752 26346.4
 03 08 2016  18 43  -15.5337 26123.3   3428.2   7.4762 26347.3
 03 08 2016  18 44  -15.5335 26124.9   3428.4   7.4763 26348.9
 03 08 2016  18 45  -15.5330 26126.0   3429.1   7.4774 26350.1
 03 08 2016  18 46  -15.5334 26126.7   3428.4   7.4757 26350.6
 03 08 2016  18 47  -15.5335 26127.3   3428.8   7.4764 26351.4
 03 08 2016  18 48  -15.5336 26127.5   3428.8   7.4765 26351.6
 03 08 2016  18 49  -15.5329 26126.9   3428.1   7.4751 26350.9
 03 08 2016  18 50  -15.5322 26126.1   3427.0   7.4728 26349.9
 03 08 2016  18 51  -15.5311 26125.5   3426.7   7.4725 26349.3
 03 08 2016  18 52  -15.5313 26125.2   3427.3   7.4738 26349.0
 03 08 2016  18 53  -15.5310 26125.4   3426.9   7.4729 26349.2
 03 08 2016  18 54  -15.5300 26125.4   3426.5   7.4721 26349.2
 03 08 2016  18 55  -15.5295 26125.3   3426.1   7.4712 26349.0
 03 08 2016  18 56  -15.5300 26124.7   3426.1   7.4715 26348.4
 03 08 2016  18 57  -15.5289 26124.3   3426.2   7.4717 26348.0
 03 08 2016  18 58  -15.5288 26124.1   3426.0   7.4714 26347.8
 03 08 2016  18 59  -15.5295 26123.9   3425.6   7.4706 26347.5
 03 08 2016  19 00  -15.5289 26124.6   3426.2   7.4717 26348.3
 03 08 2016  19 01  -15.5296 26125.1   3426.0   7.4711 26348.8
 03 08 2016  19 02  -15.5293 26125.5   3425.8   7.4706 26349.1
 03 08 2016  19 03  -15.5293 26125.6   3426.1   7.4710 26349.3
 03 08 2016  19 04  -15.5294 26126.0   3425.7   7.4702 26349.6
 03 08 2016  19 05  -15.5296 26126.1   3425.8   7.4703 26349.7
 03 08 2016  19 06  -15.5293 26125.4   3425.1   7.4689 26348.9
 03 08 2016  19 07  -15.5288 26124.3   3424.9   7.4689 26347.9
 03 08 2016  19 08  -15.5281 26123.4   3424.4   7.4681 26346.9
 03 08 2016  19 09  -15.5277 26122.3   3424.5   7.4686 26345.8
 03 08 2016  19 10  -15.5272 26121.6   3424.6   7.4690 26345.1
 03 08 2016  19 11  -15.5266 26120.8   3424.9   7.4700 26344.4
 03 08 2016  19 12  -15.5260 26120.0   3425.4   7.4712 26343.6
 03 08 2016  19 13  -15.5258 26119.4   3425.7   7.4720 26343.0
 03 08 2016  19 14  -15.5262 26118.7   3425.6   7.4720 26342.4
 03 08 2016  19 15  -15.5256 26118.5   3425.7   7.4723 26342.2
 03 08 2016  19 16  -15.5257 26118.2   3426.6   7.4744 26342.0
 03 08 2016  19 17  -15.5259 26118.0   3426.4   7.4739 26341.8
 03 08 2016  19 18  -15.5261 26117.7   3426.9   7.4751 26341.6
 03 08 2016  19 19  -15.5258 26117.5   3428.2   7.4779 26341.5
 03 08 2016  19 20  -15.5261 26117.7   3427.4   7.4762 26341.6
 03 08 2016  19 21  -15.5261 26117.8   3428.7   7.4790 26341.9
 03 08 2016  19 22  -15.5265 26117.9   3429.2   7.4800 26342.0
 03 08 2016  19 23  -15.5265 26118.0   3429.8   7.4812 26342.2
 03 08 2016  19 24  -15.5269 26118.0   3430.2   7.4821 26342.3
 03 08 2016  19 25  -15.5271 26118.1   3429.9   7.4815 26342.3
 03 08 2016  19 26  -15.5273 26118.1   3430.5   7.4827 26342.4
 03 08 2016  19 27  -15.5274 26118.2   3430.5   7.4827 26342.5
 03 08 2016  19 28  -15.5274 26118.2   3430.3   7.4824 26342.5
 03 08 2016  19 29  -15.5275 26118.0   3429.7   7.4811 26342.2
 03 08 2016  19 30  -15.5266 26118.0   3430.9   7.4835 26342.4
 03 08 2016  19 31  -15.5267 26118.0   3431.0   7.4838 26342.4
 03 08 2016  19 32  -15.5268 26118.1   3430.8   7.4833 26342.4
 03 08 2016  19 33  -15.5267 26117.9   3431.3   7.4845 26342.4
 03 08 2016  19 34  -15.5269 26117.6   3430.9   7.4836 26342.0
 03 08 2016  19 35  -15.5268 26117.4   3431.1   7.4842 26341.8
 03 08 2016  19 36  -15.5268 26116.8   3431.1   7.4843 26341.2
 03 08 2016  19 37  -15.5266 26116.7   3431.4   7.4850 26341.1
 03 08 2016  19 38  -15.5266 26116.4   3431.7   7.4858 26340.9
 03 08 2016  19 39  -15.5273 26116.4   3431.6   7.4857 26340.9
 03 08 2016  19 40  -15.5268 26117.0   3431.8   7.4858 26341.6
 03 08 2016  19 41  -15.5272 26116.9   3432.4   7.4871 26341.5
 03 08 2016  19 42  -15.5264 26117.1   3432.7   7.4877 26341.7
 03 08 2016  19 43  -15.5258 26117.0   3432.3   7.4868 26341.6
 03 08 2016  19 44  -15.5262 26116.8   3432.5   7.4875 26341.4
 03 08 2016  19 45  -15.5264 26117.5   3432.4   7.4871 26342.1
 03 08 2016  19 46  -15.5265 26117.9   3432.3   7.4866 26342.5
 03 08 2016  19 47  -15.5261 26117.7   3431.9   7.4859 26342.2
 03 08 2016  19 48  -15.5252 26117.5   3431.7   7.4854 26342.0
 03 08 2016  19 49  -15.5245 26118.4   3432.0   7.4859 26343.0
 03 08 2016  19 50  -15.5242 26119.8   3433.1   7.4877 26344.5
 03 08 2016  19 51  -15.5250 26121.4   3433.1   7.4875 26346.0
 03 08 2016  19 52  -15.5254 26122.1   3432.4   7.4858 26346.7
 03 08 2016  19 53  -15.5244 26121.8   3432.5   7.4861 26346.3
 03 08 2016  19 54  -15.5241 26120.5   3431.7   7.4846 26345.0
 03 08 2016  19 55  -15.5233 26119.5   3431.3   7.4841 26344.0
 03 08 2016  19 56  -15.5226 26118.6   3431.1   7.4838 26343.0
 03 08 2016  19 57  -15.5223 26117.6   3430.8   7.4835 26341.9
 03 08 2016  19 58  -15.5218 26117.0   3431.5   7.4851 26341.4
 03 08 2016  19 59  -15.5214 26116.3   3431.4   7.4851 26340.8
 03 08 2016  20 00  -15.5210 26116.0   3431.8   7.4860 26340.6
 03 08 2016  20 01  -15.5206 26116.2   3432.3   7.4872 26340.8
 03 08 2016  20 02  -15.5203 26116.3   3432.7   7.4880 26340.9
 03 08 2016  20 03  -15.5198 26116.4   3433.1   7.4887 26341.1
 03 08 2016  20 04  -15.5191 26116.7   3433.6   7.4897 26341.4
 03 08 2016  20 05  -15.5188 26116.9   3434.0   7.4906 26341.7
 03 08 2016  20 06  -15.5184 26116.9   3433.8   7.4901 26341.7
 03 08 2016  20 07  -15.5188 26116.5   3433.4   7.4894 26341.2
 03 08 2016  20 08  -15.5192 26116.2   3433.8   7.4903 26341.0
 03 08 2016  20 09  -15.5194 26116.5   3434.1   7.4910 26341.3
 03 08 2016  20 10  -15.5195 26117.0   3433.7   7.4900 26341.7
 03 08 2016  20 11  -15.5188 26117.4   3434.6   7.4918 26342.3
 03 08 2016  20 12  -15.5184 26117.8   3434.9   7.4924 26342.7
 03 08 2016  20 13  -15.5184 26118.0   3434.8   7.4921 26342.9
 03 08 2016  20 14  -15.5183 26118.0   3435.1   7.4926 26342.9
 03 08 2016  20 15  -15.5183 26118.0   3434.7   7.4919 26342.9
 03 08 2016  20 16  -15.5186 26117.8   3434.5   7.4914 26342.7
 03 08 2016  20 17  -15.5186 26117.9   3434.7   7.4918 26342.8
 03 08 2016  20 18  -15.5185 26117.7   3434.2   7.4908 26342.5
 03 08 2016  20 19  -15.5183 26117.5   3434.2   7.4909 26342.3
 03 08 2016  20 20  -15.5186 26117.3   3433.9   7.4903 26342.1
 03 08 2016  20 21  -15.5182 26117.1   3434.4   7.4913 26341.9
 03 08 2016  20 22  -15.5176 26117.1   3434.5   7.4917 26341.9
 03 08 2016  20 23  -15.5174 26117.3   3434.5   7.4915 26342.2
 03 08 2016  20 24  -15.5168 26117.2   3435.2   7.4930 26342.1
 03 08 2016  20 25  -15.5165 26116.9   3434.8   7.4923 26341.8
 03 08 2016  20 26  -15.5163 26116.1   3434.8   7.4925 26341.0
 03 08 2016  20 27  -15.5161 26115.5   3434.8   7.4928 26340.4
 03 08 2016  20 28  -15.5160 26115.0   3434.6   7.4926 26339.9
 03 08 2016  20 29  -15.5160 26114.7   3434.3   7.4918 26339.6
 03 08 2016  20 30  -15.5158 26114.5   3434.6   7.4926 26339.4
 03 08 2016  20 31  -15.5154 26114.6   3435.5   7.4945 26339.6
 03 08 2016  20 32  -15.5159 26114.6   3436.1   7.4957 26339.7
 03 08 2016  20 33  -15.5163 26114.8   3436.1   7.4958 26339.9
 03 08 2016  20 34  -15.5164 26115.0   3435.7   7.4948 26340.1
 03 08 2016  20 35  -15.5161 26114.7   3435.9   7.4954 26339.8
 03 08 2016  20 36  -15.5161 26114.7   3436.3   7.4961 26339.8
 03 08 2016  20 37  -15.5161 26114.5   3436.3   7.4962 26339.6
 03 08 2016  20 38  -15.5160 26114.4   3436.7   7.4971 26339.5
 03 08 2016  20 39  -15.5160 26114.2   3437.3   7.4986 26339.5
 03 08 2016  20 40  -15.5158 26114.6   3437.2   7.4981 26339.8
 03 08 2016  20 41  -15.5155 26114.9   3437.5   7.4987 26340.2
 03 08 2016  20 42  -15.5152 26115.1   3437.7   7.4992 26340.4
 03 08 2016  20 43  -15.5158 26115.1   3438.2   7.5002 26340.5
 03 08 2016  20 44  -15.5157 26115.5   3437.6   7.4988 26340.8
 03 08 2016  20 45  -15.5162 26115.5   3438.1   7.4998 26340.9
 03 08 2016  20 46  -15.5163 26115.6   3438.2   7.4999 26340.9
 03 08 2016  20 47  -15.5164 26115.8   3438.4   7.5003 26341.2
 03 08 2016  20 48  -15.5164 26116.1   3438.6   7.5008 26341.5
 03 08 2016  20 49  -15.5163 26116.3   3438.8   7.5012 26341.8
 03 08 2016  20 50  -15.5168 26116.4   3438.8   7.5011 26341.9
 03 08 2016  20 51  -15.5165 26116.6   3438.8   7.5011 26342.0
 03 08 2016  20 52  -15.5174 26116.5   3438.7   7.5008 26341.9
 03 08 2016  20 53  -15.5173 26116.6   3438.5   7.5004 26342.0
 03 08 2016  20 54  -15.5167 26116.2   3438.8   7.5012 26341.6
 03 08 2016  20 55  -15.5167 26116.2   3438.7   7.5008 26341.6
 03 08 2016  20 56  -15.5170 26116.1   3438.7   7.5009 26341.5
 03 08 2016  20 57  -15.5165 26116.3   3439.4   7.5024 26341.8
 03 08 2016  20 58  -15.5166 26116.4   3438.8   7.5011 26341.8
 03 08 2016  20 59  -15.5165 26115.9   3438.7   7.5010 26341.3
 03 08 2016  21 00  -15.5157 26115.2   3439.1   7.5021 26340.7
 03 08 2016  21 01  -15.5151 26115.1   3438.5   7.5008 26340.5
 03 08 2016  21 02  -15.5155 26114.6   3437.7   7.4993 26339.9
 03 08 2016  21 03  -15.5150 26114.1   3438.3   7.5007 26339.4
 03 08 2016  21 04  -15.5151 26114.0   3438.7   7.5016 26339.4
 03 08 2016  21 05  -15.5152 26114.4   3438.6   7.5012 26339.8
 03 08 2016  21 06  -15.5157 26114.8   3438.9   7.5018 26340.2
 03 08 2016  21 07  -15.5163 26114.5   3438.5   7.5009 26339.9
 03 08 2016  21 08  -15.5170 26113.7   3438.3   7.5007 26339.1
 03 08 2016  21 09  -15.5168 26113.0   3438.2   7.5007 26338.4
 03 08 2016  21 10  -15.5166 26112.8   3438.4   7.5013 26338.2
 03 08 2016  21 11  -15.5163 26112.9   3438.9   7.5023 26338.4
 03 08 2016  21 12  -15.5164 26114.0   3439.7   7.5037 26339.6
 03 08 2016  21 13  -15.5163 26114.7   3440.3   7.5048 26340.4
 03 08 2016  21 14  -15.5167 26116.2   3440.9   7.5057 26341.9
 03 08 2016  21 15  -15.5175 26117.1   3441.5   7.5067 26342.9
 03 08 2016  21 16  -15.5178 26116.5   3440.8   7.5054 26342.2
 03 08 2016  21 17  -15.5169 26115.9   3440.4   7.5047 26341.5
 03 08 2016  21 18  -15.5175 26116.5   3440.2   7.5041 26342.1
 03 08 2016  21 19  -15.5170 26118.6   3441.6   7.5066 26344.3
 03 08 2016  21 20  -15.5170 26119.0   3441.6   7.5063 26344.8
 03 08 2016  21 21  -15.5181 26118.5   3441.3   7.5059 26344.2
 03 08 2016  21 22  -15.5187 26117.7   3440.2   7.5038 26343.3
 03 08 2016  21 23  -15.5188 26117.2   3440.4   7.5044 26342.8
 03 08 2016  21 24  -15.5195 26116.8   3439.9   7.5033 26342.3
 03 08 2016  21 25  -15.5197 26117.0   3440.8   7.5053 26342.7
 03 08 2016  21 26  -15.5205 26117.5   3440.7   7.5048 26343.1
 03 08 2016  21 27  -15.5203 26117.9   3441.3   7.5060 26343.6
 03 08 2016  21 28  -15.5212 26118.2   3441.4   7.5061 26343.9
 03 08 2016  21 29  -15.5214 26119.1   3441.7   7.5066 26344.9
 03 08 2016  21 30  -15.5214 26120.5   3442.7   7.5083 26346.4
 03 08 2016  21 31  -15.5215 26121.3   3442.7   7.5081 26347.1
 03 08 2016  21 32  -15.5228 26121.0   3442.6   7.5079 26346.8
 03 08 2016  21 33  -15.5227 26120.7   3442.1   7.5070 26346.5
 03 08 2016  21 34  -15.5236 26120.3   3441.5   7.5057 26346.1
 03 08 2016  21 35  -15.5232 26120.4   3441.7   7.5062 26346.1
 03 08 2016  21 36  -15.5234 26120.5   3441.2   7.5052 26346.2
 03 08 2016  21 37  -15.5237 26120.7   3442.4   7.5076 26346.5
 03 08 2016  21 38  -15.5235 26121.0   3442.2   7.5071 26346.8
 03 08 2016  21 39  -15.5234 26121.2   3442.1   7.5068 26347.1
 03 08 2016  21 40  -15.5233 26121.1   3442.1   7.5069 26346.9
 03 08 2016  21 41  -15.5239 26120.2   3441.7   7.5064 26345.9
 03 08 2016  21 42  -15.5243 26119.8   3440.9   7.5046 26345.4
 03 08 2016  21 43  -15.5240 26119.6   3441.0   7.5049 26345.3
 03 08 2016  21 44  -15.5243 26119.0   3441.0   7.5052 26344.7
 03 08 2016  21 45  -15.5242 26118.4   3440.3   7.5038 26344.0
 03 08 2016  21 46  -15.5237 26118.0   3440.8   7.5049 26343.7
 03 08 2016  21 47  -15.5231 26118.6   3440.8   7.5047 26344.2
 03 08 2016  21 48  -15.5227 26120.1   3442.3   7.5076 26346.0
 03 08 2016  21 49  -15.5225 26121.7   3442.7   7.5079 26347.6
 03 08 2016  21 50  -15.5231 26122.0   3442.7   7.5079 26347.9
 03 08 2016  21 51  -15.5235 26121.7   3442.1   7.5067 26347.5
 03 08 2016  21 52  -15.5235 26121.2   3441.9   7.5065 26347.0
 03 08 2016  21 53  -15.5237 26121.3   3441.0   7.5045 26347.0
 03 08 2016  21 54  -15.5235 26121.8   3441.4   7.5051 26347.5
 03 08 2016  21 55  -15.5235 26122.2   3441.8   7.5059 26348.0
 03 08 2016  21 56  -15.5237 26122.4   3441.6   7.5055 26348.1
 03 08 2016  21 57  -15.5240 26122.1   3441.4   7.5051 26347.9
 03 08 2016  21 58  -15.5241 26121.9   3441.2   7.5048 26347.5
 03 08 2016  21 59  -15.5240 26121.6   3441.1   7.5046 26347.3
 03 08 2016  22 00  -15.5241 26121.3   3440.7   7.5039 26347.0
 03 08 2016  22 01  -15.5243 26121.0   3440.7   7.5039 26346.6
 03 08 2016  22 02  -15.5238 26120.8   3441.4   7.5054 26346.6
 03 08 2016  22 03  -15.5244 26120.8   3441.2   7.5051 26346.5
 03 08 2016  22 04  -15.5239 26121.1   3441.4   7.5054 26346.8
 03 08 2016  22 05  -15.5236 26121.8   3441.4   7.5053 26347.5
 03 08 2016  22 06  -15.5243 26122.1   3441.7   7.5057 26347.9
 03 08 2016  22 07  -15.5241 26122.4   3441.1   7.5045 26348.1
 03 08 2016  22 08  -15.5243 26122.6   3441.3   7.5048 26348.3
 03 08 2016  22 09  -15.5237 26123.2   3441.9   7.5059 26348.9
 03 08 2016  22 10  -15.5242 26123.5   3440.9   7.5035 26349.1
 03 08 2016  22 11  -15.5239 26123.7   3441.2   7.5043 26349.3
 03 08 2016  22 12  -15.5243 26124.1   3441.5   7.5047 26349.8
 03 08 2016  22 13  -15.5242 26124.8   3441.6   7.5048 26350.5
 03 08 2016  22 14  -15.5245 26125.3   3441.7   7.5049 26351.0
 03 08 2016  22 15  -15.5251 26125.2   3441.3   7.5040 26350.9
 03 08 2016  22 16  -15.5263 26124.8   3441.0   7.5035 26350.5
 03 08 2016  22 17  -15.5266 26125.0   3441.0   7.5035 26350.6
 03 08 2016  22 18  -15.5265 26125.6   3441.2   7.5036 26351.2
 03 08 2016  22 19  -15.5261 26126.1   3441.7   7.5047 26351.8
 03 08 2016  22 20  -15.5260 26126.5   3441.7   7.5044 26352.2
 03 08 2016  22 21  -15.5262 26127.0   3441.8   7.5044 26352.8
 03 08 2016  22 22  -15.5264 26127.0   3441.5   7.5040 26352.7
 03 08 2016  22 23  -15.5266 26127.1   3441.4   7.5037 26352.7
 03 08 2016  22 24  -15.5263 26127.5   3441.4   7.5036 26353.1
 03 08 2016  22 25  -15.5262 26128.1   3441.8   7.5042 26353.8
 03 08 2016  22 26  -15.5267 26128.1   3441.6   7.5037 26353.8
 03 08 2016  22 27  -15.5269 26128.0   3441.2   7.5029 26353.6
 03 08 2016  22 28  -15.5269 26127.9   3441.2   7.5031 26353.5
 03 08 2016  22 29  -15.5264 26127.6   3440.9   7.5025 26353.2
 03 08 2016  22 30  -15.5260 26127.9   3440.3   7.5010 26353.4
 03 08 2016  22 31  -15.5257 26128.2   3441.0   7.5024 26353.8
 03 08 2016  22 32  -15.5255 26128.2   3441.3   7.5032 26353.9
 03 08 2016  22 33  -15.5265 26128.4   3440.4   7.5011 26353.9
 03 08 2016  22 34  -15.5263 26128.8   3441.7   7.5038 26354.5
 03 08 2016  22 35  -15.5261 26128.9   3441.2   7.5027 26354.5
 03 08 2016  22 36  -15.5264 26129.0   3441.1   7.5025 26354.6
 03 08 2016  22 37  -15.5260 26129.0   3441.2   7.5028 26354.6
 03 08 2016  22 38  -15.5268 26127.8   3440.6   7.5018 26353.4
 03 08 2016  22 39  -15.5262 26128.1   3441.4   7.5033 26353.7
 03 08 2016  22 40  -15.5253 26129.7   3441.1   7.5023 26355.4
 03 08 2016  22 41  -15.5241 26131.1   3442.6   7.5052 26356.9
 03 08 2016  22 42  -15.5234 26131.0   3442.1   7.5040 26356.7
 03 08 2016  22 43  -15.5242 26129.9   3441.0   7.5020 26355.5
 03 08 2016  22 44  -15.5250 26128.1   3440.2   7.5009 26353.6
 03 08 2016  22 45  -15.5263 26126.8   3438.8   7.4981 26352.1
 03 08 2016  22 46  -15.5257 26126.4   3439.6   7.5000 26351.9
 03 08 2016  22 47  -15.5255 26126.6   3440.0   7.5008 26352.0
 03 08 2016  22 48  -15.5254 26127.1   3440.9   7.5026 26352.7
 03 08 2016  22 49  -15.5246 26128.0   3441.2   7.5029 26353.6
 03 08 2016  22 50  -15.5240 26129.4   3442.0   7.5044 26355.1
 03 08 2016  22 51  -15.5235 26130.1   3442.7   7.5057 26355.9
 03 08 2016  22 52  -15.5242 26129.8   3442.0   7.5042 26355.5
 03 08 2016  22 53  -15.5239 26129.3   3442.1   7.5045 26355.0
 03 08 2016  22 54  -15.5243 26128.0   3441.2   7.5030 26353.7
 03 08 2016  22 55  -15.5248 26126.5   3439.9   7.5006 26351.9
 03 08 2016  22 56  -15.5253 26125.8   3440.3   7.5017 26351.4
 03 08 2016  22 57  -15.5253 26125.6   3439.9   7.5009 26351.0
 03 08 2016  22 58  -15.5248 26125.4   3440.7   7.5027 26351.0
 03 08 2016  22 59  -15.5246 26124.8   3440.5   7.5024 26350.4
 03 08 2016  23 00  -15.5247 26124.3   3440.5   7.5024 26349.9
 03 08 2016  23 01  -15.5243 26123.9   3440.0   7.5015 26349.5
 03 08 2016  23 02  -15.5245 26123.2   3440.1   7.5019 26348.7
 03 08 2016  23 03  -15.5247 26122.8   3440.3   7.5025 26348.4
 03 08 2016  23 04  -15.5247 26121.5   3440.5   7.5034 26347.1
 03 08 2016  23 05  -15.5252 26120.5   3439.0   7.5003 26345.9
 03 08 2016  23 06  -15.5255 26119.8   3439.5   7.5017 26345.3
 03 08 2016  23 07  -15.5252 26120.7   3440.2   7.5030 26346.2
 03 08 2016  23 08  -15.5238 26122.0   3441.6   7.5055 26347.8
 03 08 2016  23 09  -15.5239 26123.6   3442.6   7.5072 26349.5
 03 08 2016  23 10  -15.5238 26125.1   3442.6   7.5068 26351.0
 03 08 2016  23 11  -15.5241 26125.6   3442.2   7.5058 26351.4
 03 08 2016  23 12  -15.5250 26125.5   3442.3   7.5060 26351.3
 03 08 2016  23 13  -15.5266 26125.0   3441.6   7.5047 26350.7
 03 08 2016  23 14  -15.5260 26124.9   3441.8   7.5052 26350.6
 03 08 2016  23 15  -15.5269 26124.8   3441.4   7.5043 26350.5
 03 08 2016  23 16  -15.5274 26124.9   3441.1   7.5037 26350.5
 03 08 2016  23 17  -15.5273 26124.7   3440.1   7.5016 26350.2
 03 08 2016  23 18  -15.5275 26124.5   3440.9   7.5033 26350.2
 03 08 2016  23 19  -15.5274 26124.6   3440.8   7.5032 26350.3
 03 08 2016  23 20  -15.5280 26124.3   3440.7   7.5030 26350.0
 03 08 2016  23 21  -15.5281 26125.0   3440.6   7.5025 26350.6
 03 08 2016  23 22  -15.5276 26124.9   3440.9   7.5033 26350.5
 03 08 2016  23 23  -15.5278 26124.4   3441.5   7.5047 26350.2
 03 08 2016  23 24  -15.5265 26125.0   3441.8   7.5051 26350.7
 03 08 2016  23 25  -15.5261 26125.1   3442.0   7.5055 26350.8
 03 08 2016  23 26  -15.5269 26125.5   3441.0   7.5033 26351.1
 03 08 2016  23 27  -15.5269 26125.0   3440.6   7.5026 26350.6
 03 08 2016  23 28  -15.5270 26124.5   3440.9   7.5034 26350.1
 03 08 2016  23 29  -15.5269 26125.0   3441.1   7.5036 26350.7
 03 08 2016  23 30  -15.5261 26125.3   3441.4   7.5041 26351.0
 03 08 2016  23 31  -15.5255 26126.0   3441.5   7.5042 26351.7
 03 08 2016  23 32  -15.5253 26126.6   3441.6   7.5043 26352.3
 03 08 2016  23 33  -15.5245 26126.7   3441.6   7.5043 26352.4
 03 08 2016  23 34  -15.5245 26126.3   3441.3   7.5038 26352.0
 03 08 2016  23 35  -15.5253 26125.9   3440.9   7.5028 26351.6
 03 08 2016  23 36  -15.5258 26125.4   3440.6   7.5024 26351.0
 03 08 2016  23 37  -15.5264 26125.1   3440.0   7.5012 26350.6
 03 08 2016  23 38  -15.5265 26124.9   3440.3   7.5020 26350.5
 03 08 2016  23 39  -15.5270 26124.9   3440.1   7.5016 26350.4
 03 08 2016  23 40  -15.5269 26124.8   3440.6   7.5026 26350.4
 03 08 2016  23 41  -15.5268 26124.6   3440.6   7.5026 26350.2
 03 08 2016  23 42  -15.5272 26124.3   3440.3   7.5021 26349.9
 03 08 2016  23 43  -15.5271 26124.5   3440.4   7.5022 26350.0
 03 08 2016  23 44  -15.5266 26124.6   3441.1   7.5037 26350.3
 03 08 2016  23 45  -15.5266 26124.2   3440.8   7.5033 26349.8
 03 08 2016  23 46  -15.5261 26123.9   3441.2   7.5042 26349.6
 03 08 2016  23 47  -15.5262 26123.9   3440.3   7.5022 26349.5
 03 08 2016  23 48  -15.5261 26124.6   3441.8   7.5051 26350.4
 03 08 2016  23 49  -15.5259 26125.1   3442.1   7.5058 26350.8
 03 08 2016  23 50  -15.5255 26125.8   3441.4   7.5040 26351.4
 03 08 2016  23 51  -15.5251 26126.2   3442.1   7.5055 26352.0
 03 08 2016  23 52  -15.5250 26126.7   3442.7   7.5067 26352.6
 03 08 2016  23 53  -15.5253 26126.9   3442.7   7.5066 26352.7
 03 08 2016  23 54  -15.5254 26127.6   3442.0   7.5047 26353.3
 03 08 2016  23 55  -15.5255 26127.9   3442.6   7.5059 26353.7
 03 08 2016  23 56  -15.5259 26128.2   3442.4   7.5056 26354.0
 03 08 2016  23 57  -15.5265 26128.2   3442.8   7.5064 26354.0
 03 08 2016  23 58  -15.5264 26128.4   3442.1   7.5049 26354.2
 03 08 2016  23 59  -15.5266 26128.3   3442.8   7.5064 26354.1
