Manaus - AM                    UNIVAP-03  <246> 1 Min. Reported data

 DD MM YYYY  HH MM   D(Deg)  H(nT)   Z(nT)   I(Deg)   F(nT)

 02 09 2016  00 00  -15.5160 26108.4   3424.7   7.4729 26332.0
 02 09 2016  00 01  -15.5169 26108.8   3425.3   7.4741 26332.5
 02 09 2016  00 02  -15.5181 26108.8   3424.9   7.4732 26332.5
 02 09 2016  00 03  -15.5196 26108.4   3424.1   7.4717 26332.0
 02 09 2016  00 04  -15.5207 26108.1   3423.7   7.4708 26331.6
 02 09 2016  00 05  -15.5216 26107.6   3423.8   7.4713 26331.1
 02 09 2016  00 06  -15.5230 26107.2   3423.0   7.4697 26330.6
 02 09 2016  00 07  -15.5237 26107.0   3423.3   7.4704 26330.5
 02 09 2016  00 08  -15.5247 26107.0   3423.7   7.4711 26330.5
 02 09 2016  00 09  -15.5253 26106.8   3423.7   7.4712 26330.4
 02 09 2016  00 10  -15.5264 26107.0   3422.6   7.4688 26330.4
 02 09 2016  00 11  -15.5272 26106.9   3422.7   7.4691 26330.3
 02 09 2016  00 12  -15.5278 26106.2   3423.3   7.4706 26329.6
 02 09 2016  00 13  -15.5275 26105.6   3423.4   7.4709 26329.1
 02 09 2016  00 14  -15.5276 26104.8   3421.7   7.4676 26328.2
 02 09 2016  00 15  -15.5285 26103.5   3422.2   7.4689 26326.9
 02 09 2016  00 16  -15.5295 26102.5   3420.8   7.4663 26325.7
 02 09 2016  00 17  -15.5293 26101.5   3422.0   7.4690 26324.8
 02 09 2016  00 18  -15.5303 26100.1   3420.8   7.4669 26323.4
 02 09 2016  00 19  -15.5302 26099.6   3420.6   7.4665 26322.8
 02 09 2016  00 20  -15.5303 26099.5   3421.2   7.4680 26322.8
 02 09 2016  00 21  -15.5306 26099.1   3422.6   7.4711 26322.5
 02 09 2016  00 22  -15.5305 26099.3   3422.5   7.4709 26322.7
 02 09 2016  00 23  -15.5295 26099.4   3422.1   7.4700 26322.8
 02 09 2016  00 24  -15.5284 26098.7   3422.9   7.4718 26322.2
 02 09 2016  00 25  -15.5281 26097.9   3421.9   7.4699 26321.3
 02 09 2016  00 26  -15.5289 26096.9   3421.9   7.4701 26320.3
 02 09 2016  00 27  -15.5275 26096.7   3422.7   7.4719 26320.2
 02 09 2016  00 28  -15.5274 26096.1   3421.4   7.4694 26319.4
 02 09 2016  00 29  -15.5275 26095.3   3421.0   7.4686 26318.6
 02 09 2016  00 30  -15.5279 26094.5   3421.6   7.4702 26317.9
 02 09 2016  00 31  -15.5287 26093.4   3422.1   7.4717 26316.9
 02 09 2016  00 32  -15.5291 26092.7   3420.9   7.4691 26316.0
 02 09 2016  00 33  -15.5288 26092.1   3420.9   7.4693 26315.4
 02 09 2016  00 34  -15.5286 26091.6   3421.3   7.4704 26314.9
 02 09 2016  00 35  -15.5295 26090.7   3422.0   7.4722 26314.2
 02 09 2016  00 36  -15.5298 26089.9   3420.8   7.4697 26313.2
 02 09 2016  00 37  -15.5288 26090.0   3421.6   7.4715 26313.4
 02 09 2016  00 38  -15.5286 26090.0   3421.6   7.4716 26313.4
 02 09 2016  00 39  -15.5293 26089.1   3421.3   7.4710 26312.4
 02 09 2016  00 40  -15.5297 26087.4   3420.9   7.4706 26310.8
 02 09 2016  00 41  -15.5307 26085.5   3421.9   7.4734 26309.0
 02 09 2016  00 42  -15.5315 26084.3   3421.5   7.4728 26307.7
 02 09 2016  00 43  -15.5320 26083.4   3420.7   7.4713 26306.7
 02 09 2016  00 44  -15.5330 26082.7   3421.6   7.4734 26306.2
 02 09 2016  00 45  -15.5346 26081.9   3421.2   7.4729 26305.3
 02 09 2016  00 46  -15.5358 26081.5   3420.0   7.4705 26304.7
 02 09 2016  00 47  -15.5357 26081.1   3420.9   7.4725 26304.5
 02 09 2016  00 48  -15.5365 26080.3   3420.7   7.4722 26303.7
 02 09 2016  00 49  -15.5374 26079.6   3420.7   7.4725 26302.9
 02 09 2016  00 50  -15.5374 26079.0   3421.7   7.4748 26302.5
 02 09 2016  00 51  -15.5372 26078.7   3421.5   7.4744 26302.2
 02 09 2016  00 52  -15.5367 26078.4   3422.4   7.4764 26302.0
 02 09 2016  00 53  -15.5369 26078.2   3420.9   7.4733 26301.6
 02 09 2016  00 54  -15.5380 26077.7   3421.5   7.4746 26301.2
 02 09 2016  00 55  -15.5388 26077.4   3421.7   7.4752 26301.0
 02 09 2016  00 56  -15.5389 26077.3   3421.5   7.4748 26300.8
 02 09 2016  00 57  -15.5388 26077.1   3421.7   7.4755 26300.6
 02 09 2016  00 58  -15.5404 26076.5   3422.2   7.4767 26300.1
 02 09 2016  00 59  -15.5410 26076.0   3421.6   7.4754 26299.5
 02 09 2016  01 00  -15.5416 26075.2   3422.5   7.4776 26298.8
 02 09 2016  01 01  -15.5422 26074.3   3421.8   7.4764 26297.9
 02 09 2016  01 02  -15.5442 26073.1   3420.9   7.4749 26296.5
 02 09 2016  01 03  -15.5451 26072.0   3419.6   7.4724 26295.3
 02 09 2016  01 04  -15.5460 26071.2   3420.3   7.4739 26294.6
 02 09 2016  01 05  -15.5461 26070.8   3420.4   7.4743 26294.2
 02 09 2016  01 06  -15.5466 26069.8   3421.3   7.4766 26293.3
 02 09 2016  01 07  -15.5476 26069.0   3420.5   7.4751 26292.4
 02 09 2016  01 08  -15.5482 26068.2   3421.5   7.4775 26291.8
 02 09 2016  01 09  -15.5484 26067.4   3421.1   7.4769 26291.0
 02 09 2016  01 10  -15.5477 26067.3   3421.0   7.4765 26290.8
 02 09 2016  01 11  -15.5480 26066.6   3421.0   7.4769 26290.1
 02 09 2016  01 12  -15.5483 26065.8   3421.5   7.4781 26289.4
 02 09 2016  01 13  -15.5479 26065.2   3422.6   7.4807 26288.9
 02 09 2016  01 14  -15.5478 26065.0   3422.4   7.4802 26288.7
 02 09 2016  01 15  -15.5483 26065.2   3421.6   7.4786 26288.9
 02 09 2016  01 16  -15.5474 26065.7   3422.9   7.4812 26289.4
 02 09 2016  01 17  -15.5472 26065.9   3422.8   7.4810 26289.7
 02 09 2016  01 18  -15.5479 26065.9   3422.6   7.4805 26289.6
 02 09 2016  01 19  -15.5474 26065.9   3422.9   7.4810 26289.6
 02 09 2016  01 20  -15.5471 26065.9   3423.4   7.4822 26289.7
 02 09 2016  01 21  -15.5475 26066.3   3423.0   7.4812 26290.1
 02 09 2016  01 22  -15.5484 26066.7   3423.2   7.4816 26290.6
 02 09 2016  01 23  -15.5497 26067.0   3423.2   7.4815 26290.8
 02 09 2016  01 24  -15.5505 26067.1   3423.1   7.4812 26290.9
 02 09 2016  01 25  -15.5512 26067.0   3423.2   7.4814 26290.9
 02 09 2016  01 26  -15.5519 26066.8   3422.9   7.4809 26290.6
 02 09 2016  01 27  -15.5527 26066.8   3422.9   7.4808 26290.6
 02 09 2016  01 28  -15.5537 26066.3   3422.4   7.4799 26290.0
 02 09 2016  01 29  -15.5537 26065.7   3422.3   7.4799 26289.4
 02 09 2016  01 30  -15.5536 26065.3   3422.5   7.4805 26289.0
 02 09 2016  01 31  -15.5538 26065.1   3422.3   7.4800 26288.8
 02 09 2016  01 32  -15.5541 26064.7   3422.7   7.4810 26288.4
 02 09 2016  01 33  -15.5545 26064.8   3422.6   7.4807 26288.5
 02 09 2016  01 34  -15.5540 26064.6   3423.5   7.4827 26288.5
 02 09 2016  01 35  -15.5546 26064.0   3422.4   7.4806 26287.7
 02 09 2016  01 36  -15.5550 26063.3   3422.7   7.4813 26287.1
 02 09 2016  01 37  -15.5565 26061.7   3422.9   7.4823 26285.5
 02 09 2016  01 38  -15.5563 26061.1   3422.9   7.4825 26284.9
 02 09 2016  01 39  -15.5564 26061.0   3422.1   7.4807 26284.7
 02 09 2016  01 40  -15.5564 26060.8   3421.7   7.4799 26284.5
 02 09 2016  01 41  -15.5554 26060.6   3422.7   7.4823 26284.5
 02 09 2016  01 42  -15.5548 26060.2   3422.8   7.4825 26284.0
 02 09 2016  01 43  -15.5547 26059.8   3421.4   7.4795 26283.5
 02 09 2016  01 44  -15.5542 26059.1   3421.9   7.4809 26282.8
 02 09 2016  01 45  -15.5532 26058.5   3422.4   7.4821 26282.3
 02 09 2016  01 46  -15.5503 26060.5   3424.0   7.4851 26284.5
 02 09 2016  01 47  -15.5492 26062.5   3424.7   7.4860 26286.5
 02 09 2016  01 48  -15.5483 26063.4   3425.2   7.4868 26287.5
 02 09 2016  01 49  -15.5468 26064.2   3425.1   7.4864 26288.2
 02 09 2016  01 50  -15.5456 26064.1   3425.4   7.4871 26288.3
 02 09 2016  01 51  -15.5440 26066.6   3426.2   7.4879 26290.8
 02 09 2016  01 52  -15.5420 26069.9   3427.8   7.4904 26294.3
 02 09 2016  01 53  -15.5400 26074.0   3429.6   7.4933 26298.6
 02 09 2016  01 54  -15.5389 26077.5   3430.4   7.4940 26302.1
 02 09 2016  01 55  -15.5386 26080.0   3430.6   7.4938 26304.7
 02 09 2016  01 56  -15.5382 26082.4   3430.3   7.4924 26307.0
 02 09 2016  01 57  -15.5373 26084.9   3430.9   7.4930 26309.6
 02 09 2016  01 58  -15.5381 26085.8   3430.3   7.4914 26310.3
 02 09 2016  01 59  -15.5375 26088.9   3430.1   7.4901 26313.4
 02 09 2016  02 00  -15.5369 26091.0   3430.8   7.4911 26315.6
 02 09 2016  02 01  -15.5357 26093.9   3431.6   7.4919 26318.6
 02 09 2016  02 02  -15.5347 26096.9   3432.0   7.4920 26321.6
 02 09 2016  02 03  -15.5337 26099.1   3431.7   7.4906 26323.7
 02 09 2016  02 04  -15.5340 26100.3   3430.5   7.4877 26324.8
 02 09 2016  02 05  -15.5346 26102.5   3430.6   7.4875 26327.0
 02 09 2016  02 06  -15.5346 26105.3   3430.8   7.4870 26329.8
 02 09 2016  02 07  -15.5348 26108.4   3431.4   7.4874 26332.9
 02 09 2016  02 08  -15.5353 26112.0   3431.6   7.4869 26336.5
 02 09 2016  02 09  -15.5367 26115.0   3432.0   7.4869 26339.5
 02 09 2016  02 10  -15.5372 26117.8   3431.4   7.4848 26342.3
 02 09 2016  02 11  -15.5375 26119.7   3431.4   7.4842 26344.1
 02 09 2016  02 12  -15.5371 26121.3   3430.4   7.4816 26345.6
 02 09 2016  02 13  -15.5382 26122.4   3430.5   7.4815 26346.6
 02 09 2016  02 14  -15.5382 26123.5   3429.7   7.4794 26347.7
 02 09 2016  02 15  -15.5385 26124.9   3428.9   7.4774 26349.0
 02 09 2016  02 16  -15.5389 26126.0   3428.0   7.4752 26349.9
 02 09 2016  02 17  -15.5387 26126.1   3426.8   7.4725 26349.9
 02 09 2016  02 18  -15.5375 26126.0   3427.6   7.4743 26349.8
 02 09 2016  02 19  -15.5371 26125.6   3426.4   7.4718 26349.4
 02 09 2016  02 20  -15.5377 26124.9   3425.8   7.4707 26348.6
 02 09 2016  02 21  -15.5368 26124.9   3425.9   7.4709 26348.5
 02 09 2016  02 22  -15.5370 26124.7   3425.4   7.4698 26348.3
 02 09 2016  02 23  -15.5383 26124.4   3424.8   7.4687 26348.0
 02 09 2016  02 24  -15.5376 26124.7   3425.0   7.4689 26348.2
 02 09 2016  02 25  -15.5373 26124.7   3423.7   7.4662 26348.0
 02 09 2016  02 26  -15.5370 26124.3   3423.4   7.4657 26347.7
 02 09 2016  02 27  -15.5359 26123.9   3424.1   7.4673 26347.4
 02 09 2016  02 28  -15.5347 26122.9   3424.7   7.4688 26346.4
 02 09 2016  02 29  -15.5338 26121.9   3423.1   7.4658 26345.2
 02 09 2016  02 30  -15.5341 26120.1   3422.8   7.4655 26343.4
 02 09 2016  02 31  -15.5346 26118.7   3421.9   7.4640 26341.9
 02 09 2016  02 32  -15.5343 26117.9   3421.8   7.4640 26341.1
 02 09 2016  02 33  -15.5336 26116.9   3422.9   7.4668 26340.2
 02 09 2016  02 34  -15.5329 26115.9   3421.0   7.4629 26339.0
 02 09 2016  02 35  -15.5306 26115.1   3422.7   7.4667 26338.4
 02 09 2016  02 36  -15.5296 26114.1   3422.5   7.4667 26337.4
 02 09 2016  02 37  -15.5290 26112.6   3422.2   7.4663 26335.9
 02 09 2016  02 38  -15.5288 26110.7   3420.8   7.4640 26333.8
 02 09 2016  02 39  -15.5284 26108.8   3420.0   7.4627 26331.8
 02 09 2016  02 40  -15.5276 26106.7   3420.1   7.4636 26329.8
 02 09 2016  02 41  -15.5273 26105.1   3419.0   7.4615 26328.0
 02 09 2016  02 42  -15.5279 26103.2   3419.8   7.4638 26326.2
 02 09 2016  02 43  -15.5283 26101.7   3419.2   7.4630 26324.7
 02 09 2016  02 44  -15.5284 26100.2   3419.1   7.4632 26323.2
 02 09 2016  02 45  -15.5281 26098.7   3419.3   7.4641 26321.8
 02 09 2016  02 46  -15.5283 26097.3   3418.9   7.4636 26320.3
 02 09 2016  02 47  -15.5279 26096.0   3419.3   7.4648 26319.1
 02 09 2016  02 48  -15.5282 26094.8   3419.2   7.4649 26317.9
 02 09 2016  02 49  -15.5282 26094.1   3419.5   7.4658 26317.2
 02 09 2016  02 50  -15.5282 26093.8   3420.0   7.4669 26317.0
 02 09 2016  02 51  -15.5286 26093.4   3420.3   7.4676 26316.6
 02 09 2016  02 52  -15.5281 26092.9   3420.6   7.4686 26316.1
 02 09 2016  02 53  -15.5278 26092.3   3420.6   7.4687 26315.5
 02 09 2016  02 54  -15.5277 26092.0   3420.9   7.4695 26315.3
 02 09 2016  02 55  -15.5279 26091.6   3421.0   7.4697 26314.9
 02 09 2016  02 56  -15.5283 26091.3   3421.1   7.4699 26314.7
 02 09 2016  02 57  -15.5283 26091.3   3421.4   7.4708 26314.7
 02 09 2016  02 58  -15.5287 26091.4   3421.5   7.4708 26314.8
 02 09 2016  02 59  -15.5293 26091.8   3422.3   7.4725 26315.3
 02 09 2016  03 00  -15.5302 26092.1   3422.2   7.4722 26315.5
 02 09 2016  03 01  -15.5304 26092.7   3422.2   7.4719 26316.2
 02 09 2016  03 02  -15.5314 26093.1   3422.6   7.4727 26316.6
 02 09 2016  03 03  -15.5316 26093.8   3423.4   7.4743 26317.4
 02 09 2016  03 04  -15.5324 26094.4   3423.0   7.4732 26318.0
 02 09 2016  03 05  -15.5328 26094.6   3424.2   7.4758 26318.3
 02 09 2016  03 06  -15.5341 26094.4   3424.0   7.4753 26318.0
 02 09 2016  03 07  -15.5345 26094.6   3423.0   7.4732 26318.2
 02 09 2016  03 08  -15.5342 26094.9   3422.9   7.4728 26318.5
 02 09 2016  03 09  -15.5351 26094.4   3422.4   7.4720 26317.8
 02 09 2016  03 10  -15.5351 26094.2   3421.8   7.4708 26317.6
 02 09 2016  03 11  -15.5352 26093.9   3422.6   7.4726 26317.4
 02 09 2016  03 12  -15.5360 26093.5   3422.2   7.4718 26316.9
 02 09 2016  03 13  -15.5361 26093.6   3422.1   7.4715 26317.1
 02 09 2016  03 14  -15.5364 26094.0   3422.5   7.4723 26317.5
 02 09 2016  03 15  -15.5372 26093.9   3422.6   7.4725 26317.4
 02 09 2016  03 16  -15.5372 26094.5   3422.6   7.4724 26318.0
 02 09 2016  03 17  -15.5375 26094.3   3423.1   7.4735 26317.9
 02 09 2016  03 18  -15.5381 26093.5   3422.8   7.4730 26317.1
 02 09 2016  03 19  -15.5387 26092.8   3423.2   7.4742 26316.4
 02 09 2016  03 20  -15.5385 26092.4   3422.7   7.4732 26316.0
 02 09 2016  03 21  -15.5384 26092.0   3422.4   7.4727 26315.5
 02 09 2016  03 22  -15.5391 26091.2   3422.7   7.4734 26314.7
 02 09 2016  03 23  -15.5398 26090.7   3421.6   7.4712 26314.1
 02 09 2016  03 24  -15.5385 26090.5   3421.2   7.4705 26313.8
 02 09 2016  03 25  -15.5389 26090.2   3421.7   7.4717 26313.6
 02 09 2016  03 26  -15.5376 26089.9   3423.1   7.4748 26313.5
 02 09 2016  03 27  -15.5376 26089.6   3421.8   7.4721 26313.1
 02 09 2016  03 28  -15.5373 26089.1   3422.1   7.4729 26312.6
 02 09 2016  03 29  -15.5368 26089.6   3421.9   7.4722 26313.1
 02 09 2016  03 30  -15.5363 26090.3   3423.0   7.4744 26313.8
 02 09 2016  03 31  -15.5362 26090.4   3422.4   7.4732 26313.9
 02 09 2016  03 32  -15.5358 26090.3   3423.6   7.4757 26314.0
 02 09 2016  03 33  -15.5353 26090.8   3423.3   7.4749 26314.4
 02 09 2016  03 34  -15.5351 26090.8   3423.5   7.4754 26314.5
 02 09 2016  03 35  -15.5348 26090.6   3423.4   7.4753 26314.2
 02 09 2016  03 36  -15.5348 26090.1   3423.0   7.4744 26313.7
 02 09 2016  03 37  -15.5348 26089.7   3422.0   7.4725 26313.2
 02 09 2016  03 38  -15.5345 26089.4   3422.7   7.4739 26312.9
 02 09 2016  03 39  -15.5340 26089.2   3423.3   7.4754 26312.8
 02 09 2016  03 40  -15.5345 26089.2   3422.2   7.4729 26312.7
 02 09 2016  03 41  -15.5343 26089.7   3422.5   7.4736 26313.3
 02 09 2016  03 42  -15.5337 26090.4   3423.5   7.4755 26314.0
 02 09 2016  03 43  -15.5331 26091.5   3424.0   7.4761 26315.2
 02 09 2016  03 44  -15.5326 26092.4   3424.2   7.4764 26316.1
 02 09 2016  03 45  -15.5331 26092.1   3424.4   7.4769 26315.8
 02 09 2016  03 46  -15.5334 26091.4   3423.3   7.4748 26315.0
 02 09 2016  03 47  -15.5330 26091.2   3423.1   7.4744 26314.8
 02 09 2016  03 48  -15.5321 26091.8   3423.8   7.4758 26315.5
 02 09 2016  03 49  -15.5323 26091.8   3423.3   7.4747 26315.4
 02 09 2016  03 50  -15.5322 26092.1   3423.7   7.4755 26315.8
 02 09 2016  03 51  -15.5321 26092.5   3424.1   7.4761 26316.2
 02 09 2016  03 52  -15.5328 26092.1   3423.2   7.4743 26315.7
 02 09 2016  03 53  -15.5326 26091.9   3423.5   7.4749 26315.6
 02 09 2016  03 54  -15.5322 26092.5   3423.6   7.4751 26316.2
 02 09 2016  03 55  -15.5321 26093.2   3424.3   7.4764 26316.9
 02 09 2016  03 56  -15.5327 26093.7   3424.6   7.4769 26317.5
 02 09 2016  03 57  -15.5333 26093.6   3424.5   7.4768 26317.3
 02 09 2016  03 58  -15.5338 26093.3   3423.9   7.4755 26317.0
 02 09 2016  03 59  -15.5342 26093.0   3423.6   7.4750 26316.6
 02 09 2016  04 00  -15.5344 26093.2   3424.0   7.4756 26316.9
 02 09 2016  04 01  -15.5355 26092.7   3423.8   7.4754 26316.4
 02 09 2016  04 02  -15.5358 26092.1   3423.2   7.4744 26315.7
 02 09 2016  04 03  -15.5362 26091.8   3423.6   7.4752 26315.5
 02 09 2016  04 04  -15.5366 26091.4   3423.1   7.4743 26315.0
 02 09 2016  04 05  -15.5364 26091.3   3423.4   7.4749 26315.0
 02 09 2016  04 06  -15.5364 26091.6   3424.0   7.4761 26315.3
 02 09 2016  04 07  -15.5370 26091.7   3423.8   7.4756 26315.4
 02 09 2016  04 08  -15.5373 26091.5   3424.0   7.4763 26315.2
 02 09 2016  04 09  -15.5378 26091.6   3422.9   7.4738 26315.1
 02 09 2016  04 10  -15.5384 26091.6   3424.5   7.4773 26315.4
 02 09 2016  04 11  -15.5390 26091.9   3424.6   7.4774 26315.7
 02 09 2016  04 12  -15.5387 26092.9   3424.9   7.4779 26316.8
 02 09 2016  04 13  -15.5377 26093.8   3425.6   7.4791 26317.7
 02 09 2016  04 14  -15.5366 26094.2   3425.5   7.4787 26318.1
 02 09 2016  04 15  -15.5365 26094.6   3425.5   7.4785 26318.5
 02 09 2016  04 16  -15.5365 26095.5   3425.3   7.4779 26319.3
 02 09 2016  04 17  -15.5365 26095.8   3425.4   7.4781 26319.7
 02 09 2016  04 18  -15.5360 26096.7   3425.5   7.4780 26320.6
 02 09 2016  04 19  -15.5357 26098.3   3426.6   7.4799 26322.3
 02 09 2016  04 20  -15.5354 26099.6   3427.2   7.4809 26323.7
 02 09 2016  04 21  -15.5352 26101.0   3426.9   7.4797 26325.0
 02 09 2016  04 22  -15.5348 26102.1   3426.9   7.4796 26326.1
 02 09 2016  04 23  -15.5346 26103.4   3426.9   7.4792 26327.4
 02 09 2016  04 24  -15.5346 26104.7   3427.3   7.4796 26328.7
 02 09 2016  04 25  -15.5347 26106.1   3427.3   7.4793 26330.1
 02 09 2016  04 26  -15.5351 26107.8   3428.0   7.4803 26331.9
 02 09 2016  04 27  -15.5351 26109.1   3427.7   7.4791 26333.1
 02 09 2016  04 28  -15.5345 26110.4   3428.6   7.4808 26334.5
 02 09 2016  04 29  -15.5354 26111.6   3427.3   7.4776 26335.6
 02 09 2016  04 30  -15.5345 26113.8   3428.8   7.4802 26337.9
 02 09 2016  04 31  -15.5364 26115.4   3428.8   7.4799 26339.5
 02 09 2016  04 32  -15.5367 26117.7   3429.0   7.4795 26341.9
 02 09 2016  04 33  -15.5364 26119.0   3429.1   7.4794 26343.1
 02 09 2016  04 34  -15.5366 26120.1   3428.6   7.4780 26344.2
 02 09 2016  04 35  -15.5366 26122.8   3428.8   7.4778 26346.8
 02 09 2016  04 36  -15.5357 26125.3   3429.5   7.4786 26349.4
 02 09 2016  04 37  -15.5364 26126.6   3430.7   7.4807 26350.8
 02 09 2016  04 38  -15.5370 26127.8   3429.9   7.4787 26351.9
 02 09 2016  04 39  -15.5368 26129.4   3429.6   7.4777 26353.5
 02 09 2016  04 40  -15.5375 26132.1   3430.5   7.4787 26356.3
 02 09 2016  04 41  -15.5371 26135.1   3430.9   7.4787 26359.3
 02 09 2016  04 42  -15.5373 26138.3   3431.9   7.4801 26362.6
 02 09 2016  04 43  -15.5368 26141.6   3432.3   7.4800 26365.9
 02 09 2016  04 44  -15.5361 26145.1   3432.9   7.4801 26369.5
 02 09 2016  04 45  -15.5365 26148.2   3432.7   7.4790 26372.5
 02 09 2016  04 46  -15.5348 26151.1   3433.3   7.4795 26375.5
 02 09 2016  04 47  -15.5358 26152.5   3431.8   7.4757 26376.7
 02 09 2016  04 48  -15.5351 26155.6   3432.1   7.4756 26379.8
 02 09 2016  04 49  -15.5338 26158.2   3432.7   7.4762 26382.5
 02 09 2016  04 50  -15.5342 26160.3   3433.4   7.4771 26384.7
 02 09 2016  04 51  -15.5343 26161.8   3432.9   7.4756 26386.1
 02 09 2016  04 52  -15.5353 26163.2   3430.8   7.4705 26387.2
 02 09 2016  04 53  -15.5354 26164.5   3430.5   7.4697 26388.5
 02 09 2016  04 54  -15.5355 26165.9   3430.7   7.4696 26389.8
 02 09 2016  04 55  -15.5361 26167.0   3431.2   7.4705 26391.0
 02 09 2016  04 56  -15.5363 26167.5   3431.0   7.4697 26391.4
 02 09 2016  04 57  -15.5373 26167.8   3429.0   7.4655 26391.5
 02 09 2016  04 58  -15.5374 26168.3   3428.0   7.4631 26391.9
 02 09 2016  04 59  -15.5382 26168.0   3428.0   7.4632 26391.6
 02 09 2016  05 00  -15.5388 26168.0   3427.3   7.4617 26391.4
 02 09 2016  05 01  -15.5399 26167.3   3426.0   7.4590 26390.6
 02 09 2016  05 02  -15.5411 26166.2   3425.6   7.4586 26389.5
 02 09 2016  05 03  -15.5427 26164.5   3424.4   7.4564 26387.6
 02 09 2016  05 04  -15.5432 26163.2   3423.5   7.4549 26386.3
 02 09 2016  05 05  -15.5438 26161.9   3423.4   7.4550 26384.9
 02 09 2016  05 06  -15.5437 26161.1   3424.0   7.4566 26384.2
 02 09 2016  05 07  -15.5442 26159.6   3423.7   7.4563 26382.7
 02 09 2016  05 08  -15.5446 26157.8   3422.2   7.4536 26380.8
 02 09 2016  05 09  -15.5448 26156.0   3421.7   7.4531 26378.8
 02 09 2016  05 10  -15.5449 26154.6   3421.6   7.4533 26377.5
 02 09 2016  05 11  -15.5453 26153.3   3421.7   7.4538 26376.2
 02 09 2016  05 12  -15.5452 26151.8   3422.1   7.4552 26374.8
 02 09 2016  05 13  -15.5455 26150.8   3420.8   7.4526 26373.6
 02 09 2016  05 14  -15.5453 26148.3   3421.2   7.4540 26371.2
 02 09 2016  05 15  -15.5448 26146.8   3421.1   7.4543 26369.6
 02 09 2016  05 16  -15.5438 26145.6   3420.8   7.4541 26368.4
 02 09 2016  05 17  -15.5428 26144.3   3420.2   7.4532 26367.1
 02 09 2016  05 18  -15.5416 26143.4   3421.0   7.4552 26366.3
 02 09 2016  05 19  -15.5396 26142.5   3421.0   7.4554 26365.3
 02 09 2016  05 20  -15.5394 26140.6   3420.6   7.4550 26363.5
 02 09 2016  05 21  -15.5384 26138.7   3420.2   7.4547 26361.6
 02 09 2016  05 22  -15.5374 26137.6   3420.3   7.4552 26360.4
 02 09 2016  05 23  -15.5363 26136.4   3419.8   7.4544 26359.2
 02 09 2016  05 24  -15.5357 26135.4   3420.5   7.4563 26358.3
 02 09 2016  05 25  -15.5345 26134.0   3420.8   7.4572 26356.9
 02 09 2016  05 26  -15.5344 26132.5   3419.3   7.4544 26355.3
 02 09 2016  05 27  -15.5332 26131.0   3419.8   7.4560 26353.8
 02 09 2016  05 28  -15.5317 26130.7   3420.9   7.4584 26353.6
 02 09 2016  05 29  -15.5314 26130.9   3421.3   7.4592 26354.0
 02 09 2016  05 30  -15.5299 26131.1   3421.9   7.4605 26354.2
 02 09 2016  05 31  -15.5292 26130.1   3422.2   7.4615 26353.3
 02 09 2016  05 32  -15.5292 26128.1   3420.8   7.4591 26351.1
 02 09 2016  05 33  -15.5289 26126.3   3420.1   7.4580 26349.2
 02 09 2016  05 34  -15.5273 26125.0   3420.1   7.4584 26347.9
 02 09 2016  05 35  -15.5279 26123.9   3419.5   7.4573 26346.7
 02 09 2016  05 36  -15.5287 26122.8   3420.2   7.4591 26345.7
 02 09 2016  05 37  -15.5285 26121.8   3419.7   7.4584 26344.7
 02 09 2016  05 38  -15.5287 26120.7   3420.2   7.4597 26343.7
 02 09 2016  05 39  -15.5296 26120.1   3419.5   7.4585 26343.0
 02 09 2016  05 40  -15.5303 26119.6   3420.2   7.4602 26342.6
 02 09 2016  05 41  -15.5309 26119.3   3419.6   7.4589 26342.2
 02 09 2016  05 42  -15.5305 26119.1   3420.5   7.4608 26342.1
 02 09 2016  05 43  -15.5317 26118.6   3421.2   7.4624 26341.7
 02 09 2016  05 44  -15.5316 26118.8   3420.7   7.4613 26341.8
 02 09 2016  05 45  -15.5311 26118.9   3421.2   7.4625 26342.0
 02 09 2016  05 46  -15.5312 26118.7   3421.1   7.4622 26341.8
 02 09 2016  05 47  -15.5314 26118.2   3421.0   7.4622 26341.3
 02 09 2016  05 48  -15.5311 26117.7   3420.7   7.4617 26340.7
 02 09 2016  05 49  -15.5303 26117.2   3421.8   7.4642 26340.4
 02 09 2016  05 50  -15.5300 26116.5   3421.7   7.4641 26339.7
 02 09 2016  05 51  -15.5297 26116.4   3421.8   7.4643 26339.6
 02 09 2016  05 52  -15.5293 26116.5   3422.4   7.4658 26339.8
 02 09 2016  05 53  -15.5287 26116.5   3422.2   7.4652 26339.8
 02 09 2016  05 54  -15.5285 26115.9   3422.0   7.4650 26339.1
 02 09 2016  05 55  -15.5280 26115.4   3422.0   7.4651 26338.7
 02 09 2016  05 56  -15.5273 26115.2   3421.9   7.4651 26338.5
 02 09 2016  05 57  -15.5282 26114.9   3422.2   7.4657 26338.2
 02 09 2016  05 58  -15.5283 26115.2   3422.8   7.4670 26338.5
 02 09 2016  05 59  -15.5281 26115.0   3422.5   7.4663 26338.3
 02 09 2016  06 00  -15.5267 26115.1   3422.4   7.4662 26338.4
 02 09 2016  06 01  -15.5275 26114.6   3422.8   7.4671 26337.9
 02 09 2016  06 02  -15.5277 26114.7   3423.2   7.4680 26338.1
 02 09 2016  06 03  -15.5274 26115.3   3422.3   7.4658 26338.5
 02 09 2016  06 04  -15.5277 26115.4   3423.4   7.4682 26338.8
 02 09 2016  06 05  -15.5272 26115.3   3422.4   7.4660 26338.6
 02 09 2016  06 06  -15.5287 26114.6   3421.5   7.4643 26337.8
 02 09 2016  06 07  -15.5284 26114.4   3421.8   7.4650 26337.6
 02 09 2016  06 08  -15.5272 26114.6   3422.9   7.4673 26338.0
 02 09 2016  06 09  -15.5271 26114.9   3422.7   7.4667 26338.3
 02 09 2016  06 10  -15.5275 26115.0   3423.5   7.4684 26338.5
 02 09 2016  06 11  -15.5278 26115.0   3422.6   7.4667 26338.3
 02 09 2016  06 12  -15.5274 26114.8   3423.0   7.4674 26338.2
 02 09 2016  06 13  -15.5276 26114.6   3422.6   7.4668 26337.9
 02 09 2016  06 14  -15.5269 26114.9   3422.8   7.4670 26338.3
 02 09 2016  06 15  -15.5277 26114.6   3423.2   7.4679 26338.0
 02 09 2016  06 16  -15.5277 26114.0   3421.9   7.4653 26337.2
 02 09 2016  06 17  -15.5284 26112.9   3422.6   7.4671 26336.2
 02 09 2016  06 18  -15.5275 26112.2   3421.7   7.4653 26335.4
 02 09 2016  06 19  -15.5278 26111.4   3421.9   7.4661 26334.7
 02 09 2016  06 20  -15.5273 26111.2   3421.7   7.4657 26334.5
 02 09 2016  06 21  -15.5278 26110.6   3421.9   7.4663 26333.9
 02 09 2016  06 22  -15.5278 26110.1   3421.9   7.4665 26333.4
 02 09 2016  06 23  -15.5275 26109.6   3422.5   7.4678 26332.9
 02 09 2016  06 24  -15.5268 26109.3   3422.7   7.4685 26332.7
 02 09 2016  06 25  -15.5269 26109.1   3422.1   7.4672 26332.4
 02 09 2016  06 26  -15.5270 26108.8   3421.3   7.4655 26332.0
 02 09 2016  06 27  -15.5257 26109.2   3423.0   7.4690 26332.6
 02 09 2016  06 28  -15.5254 26109.2   3422.7   7.4685 26332.6
 02 09 2016  06 29  -15.5247 26109.5   3422.7   7.4683 26332.9
 02 09 2016  06 30  -15.5240 26109.8   3423.2   7.4694 26333.2
 02 09 2016  06 31  -15.5231 26110.3   3423.3   7.4694 26333.8
 02 09 2016  06 32  -15.5233 26110.6   3423.4   7.4696 26334.1
 02 09 2016  06 33  -15.5239 26111.2   3423.2   7.4690 26334.6
 02 09 2016  06 34  -15.5243 26111.5   3423.3   7.4691 26334.9
 02 09 2016  06 35  -15.5244 26111.8   3423.5   7.4693 26335.3
 02 09 2016  06 36  -15.5238 26112.0   3423.5   7.4694 26335.5
 02 09 2016  06 37  -15.5236 26112.4   3424.0   7.4704 26336.0
 02 09 2016  06 38  -15.5234 26113.1   3424.0   7.4702 26336.6
 02 09 2016  06 39  -15.5236 26113.2   3423.9   7.4699 26336.7
 02 09 2016  06 40  -15.5237 26113.1   3423.8   7.4696 26336.6
 02 09 2016  06 41  -15.5238 26113.0   3423.6   7.4693 26336.5
 02 09 2016  06 42  -15.5235 26113.3   3423.7   7.4694 26336.8
 02 09 2016  06 43  -15.5238 26113.4   3423.4   7.4688 26336.8
 02 09 2016  06 44  -15.5237 26113.7   3423.8   7.4694 26337.2
 02 09 2016  06 45  -15.5237 26114.5   3424.2   7.4702 26338.0
 02 09 2016  06 46  -15.5233 26115.8   3424.7   7.4708 26339.4
 02 09 2016  06 47  -15.5233 26117.1   3425.4   7.4720 26340.7
 02 09 2016  06 48  -15.5234 26118.7   3425.8   7.4725 26342.4
 02 09 2016  06 49  -15.5234 26119.7   3426.0   7.4725 26343.4
 02 09 2016  06 50  -15.5230 26119.5   3425.5   7.4715 26343.2
 02 09 2016  06 51  -15.5230 26118.8   3424.9   7.4705 26342.4
 02 09 2016  06 52  -15.5223 26119.2   3425.3   7.4711 26342.9
 02 09 2016  06 53  -15.5231 26120.4   3425.3   7.4708 26344.0
 02 09 2016  06 54  -15.5233 26120.5   3424.5   7.4691 26344.0
 02 09 2016  06 55  -15.5233 26120.0   3425.0   7.4703 26343.6
 02 09 2016  06 56  -15.5232 26120.6   3424.4   7.4688 26344.1
 02 09 2016  06 57  -15.5237 26121.0   3424.5   7.4690 26344.5
 02 09 2016  06 58  -15.5237 26121.4   3424.5   7.4688 26344.9
 02 09 2016  06 59  -15.5235 26121.4   3425.4   7.4708 26345.1
 02 09 2016  07 00  -15.5244 26121.3   3424.1   7.4681 26344.7
 02 09 2016  07 01  -15.5242 26120.4   3424.0   7.4681 26343.9
 02 09 2016  07 02  -15.5247 26120.0   3423.3   7.4666 26343.4
 02 09 2016  07 03  -15.5248 26119.8   3423.3   7.4668 26343.2
 02 09 2016  07 04  -15.5243 26120.0   3423.2   7.4665 26343.4
 02 09 2016  07 05  -15.5244 26120.6   3423.5   7.4669 26344.0
 02 09 2016  07 06  -15.5237 26121.2   3424.2   7.4683 26344.7
 02 09 2016  07 07  -15.5238 26121.2   3424.2   7.4682 26344.7
 02 09 2016  07 08  -15.5235 26120.9   3423.7   7.4673 26344.3
 02 09 2016  07 09  -15.5240 26119.8   3423.8   7.4678 26343.3
 02 09 2016  07 10  -15.5230 26119.3   3422.9   7.4660 26342.6
 02 09 2016  07 11  -15.5236 26118.0   3422.5   7.4654 26341.3
 02 09 2016  07 12  -15.5239 26117.2   3422.5   7.4658 26340.5
 02 09 2016  07 13  -15.5235 26117.3   3421.7   7.4640 26340.5
 02 09 2016  07 14  -15.5222 26117.4   3421.7   7.4639 26340.6
 02 09 2016  07 15  -15.5213 26117.5   3422.9   7.4665 26340.9
 02 09 2016  07 16  -15.5212 26117.9   3422.1   7.4647 26341.2
 02 09 2016  07 17  -15.5205 26118.5   3422.7   7.4657 26341.8
 02 09 2016  07 18  -15.5191 26119.4   3424.1   7.4686 26342.8
 02 09 2016  07 19  -15.5185 26119.7   3423.6   7.4674 26343.1
 02 09 2016  07 20  -15.5178 26119.6   3423.6   7.4674 26343.0
 02 09 2016  07 21  -15.5172 26119.7   3423.5   7.4671 26343.1
 02 09 2016  07 22  -15.5178 26119.9   3423.3   7.4667 26343.3
 02 09 2016  07 23  -15.5181 26120.6   3424.5   7.4690 26344.1
 02 09 2016  07 24  -15.5185 26121.4   3423.5   7.4667 26344.8
 02 09 2016  07 25  -15.5175 26121.9   3423.4   7.4663 26345.3
 02 09 2016  07 26  -15.5181 26122.2   3423.7   7.4670 26345.6
 02 09 2016  07 27  -15.5167 26122.5   3424.7   7.4689 26346.0
 02 09 2016  07 28  -15.5177 26121.2   3423.2   7.4660 26344.5
 02 09 2016  07 29  -15.5172 26120.8   3423.4   7.4666 26344.1
 02 09 2016  07 30  -15.5174 26120.7   3423.2   7.4663 26344.0
 02 09 2016  07 31  -15.5174 26120.3   3422.3   7.4645 26343.5
 02 09 2016  07 32  -15.5175 26119.5   3422.2   7.4644 26342.7
 02 09 2016  07 33  -15.5172 26119.3   3421.8   7.4637 26342.5
 02 09 2016  07 34  -15.5159 26119.0   3422.3   7.4649 26342.2
 02 09 2016  07 35  -15.5156 26118.5   3422.6   7.4656 26341.8
 02 09 2016  07 36  -15.5151 26118.4   3422.3   7.4649 26341.7
 02 09 2016  07 37  -15.5147 26118.2   3422.2   7.4648 26341.4
 02 09 2016  07 38  -15.5142 26118.1   3422.2   7.4649 26341.3
 02 09 2016  07 39  -15.5143 26117.7   3422.7   7.4660 26341.0
 02 09 2016  07 40  -15.5139 26117.6   3422.2   7.4649 26340.9
 02 09 2016  07 41  -15.5132 26117.6   3422.2   7.4649 26340.9
 02 09 2016  07 42  -15.5131 26117.5   3422.7   7.4661 26340.8
 02 09 2016  07 43  -15.5126 26117.6   3422.4   7.4654 26340.8
 02 09 2016  07 44  -15.5124 26117.5   3422.7   7.4661 26340.8
 02 09 2016  07 45  -15.5117 26117.6   3422.9   7.4665 26340.9
 02 09 2016  07 46  -15.5116 26117.5   3422.7   7.4662 26340.8
 02 09 2016  07 47  -15.5110 26117.4   3422.5   7.4656 26340.7
 02 09 2016  07 48  -15.5107 26117.3   3422.1   7.4648 26340.5
 02 09 2016  07 49  -15.5099 26117.4   3422.6   7.4658 26340.7
 02 09 2016  07 50  -15.5109 26117.0   3422.6   7.4659 26340.3
 02 09 2016  07 51  -15.5103 26117.1   3422.6   7.4660 26340.4
 02 09 2016  07 52  -15.5096 26117.2   3423.0   7.4668 26340.5
 02 09 2016  07 53  -15.5097 26117.1   3423.2   7.4673 26340.5
 02 09 2016  07 54  -15.5095 26117.2   3422.9   7.4666 26340.6
 02 09 2016  07 55  -15.5093 26117.1   3423.1   7.4671 26340.4
 02 09 2016  07 56  -15.5098 26117.2   3421.9   7.4644 26340.5
 02 09 2016  07 57  -15.5094 26117.6   3423.6   7.4681 26341.0
 02 09 2016  07 58  -15.5099 26118.0   3423.2   7.4670 26341.4
 02 09 2016  07 59  -15.5100 26118.4   3423.2   7.4670 26341.8
 02 09 2016  08 00  -15.5100 26118.6   3423.5   7.4676 26342.0
 02 09 2016  08 01  -15.5103 26118.8   3423.0   7.4664 26342.1
 02 09 2016  08 02  -15.5103 26119.1   3423.1   7.4665 26342.4
 02 09 2016  08 03  -15.5103 26119.3   3423.5   7.4674 26342.7
 02 09 2016  08 04  -15.5099 26119.8   3423.5   7.4671 26343.2
 02 09 2016  08 05  -15.5097 26120.4   3423.8   7.4676 26343.8
 02 09 2016  08 06  -15.5096 26121.1   3424.4   7.4688 26344.6
 02 09 2016  08 07  -15.5091 26121.7   3424.3   7.4682 26345.1
 02 09 2016  08 08  -15.5091 26121.7   3424.3   7.4684 26345.2
 02 09 2016  08 09  -15.5091 26121.6   3423.9   7.4676 26345.0
 02 09 2016  08 10  -15.5085 26121.4   3423.8   7.4673 26344.8
 02 09 2016  08 11  -15.5082 26120.9   3423.2   7.4662 26344.3
 02 09 2016  08 12  -15.5083 26120.5   3422.8   7.4654 26343.8
 02 09 2016  08 13  -15.5080 26120.1   3421.9   7.4636 26343.3
 02 09 2016  08 14  -15.5076 26119.5   3421.5   7.4630 26342.7
 02 09 2016  08 15  -15.5076 26119.2   3422.3   7.4648 26342.5
 02 09 2016  08 16  -15.5073 26119.4   3421.9   7.4638 26342.5
 02 09 2016  08 17  -15.5065 26119.4   3423.3   7.4667 26342.8
 02 09 2016  08 18  -15.5066 26119.6   3422.5   7.4649 26342.9
 02 09 2016  08 19  -15.5059 26119.7   3423.4   7.4670 26343.1
 02 09 2016  08 20  -15.5055 26119.8   3422.8   7.4655 26343.1
 02 09 2016  08 21  -15.5058 26119.6   3423.3   7.4668 26343.0
 02 09 2016  08 22  -15.5060 26119.5   3423.2   7.4666 26342.9
 02 09 2016  08 23  -15.5055 26119.8   3422.8   7.4657 26343.1
 02 09 2016  08 24  -15.5068 26119.7   3422.9   7.4660 26343.0
 02 09 2016  08 25  -15.5062 26119.8   3423.2   7.4666 26343.1
 02 09 2016  08 26  -15.5069 26119.7   3422.4   7.4648 26343.0
 02 09 2016  08 27  -15.5069 26119.8   3423.1   7.4662 26343.1
 02 09 2016  08 28  -15.5076 26119.9   3423.2   7.4664 26343.3
 02 09 2016  08 29  -15.5078 26120.6   3423.4   7.4668 26344.0
 02 09 2016  08 30  -15.5074 26121.8   3424.1   7.4679 26345.3
 02 09 2016  08 31  -15.5078 26123.3   3424.8   7.4689 26346.8
 02 09 2016  08 32  -15.5076 26124.5   3425.3   7.4697 26348.1
 02 09 2016  08 33  -15.5083 26124.8   3424.5   7.4679 26348.3
 02 09 2016  08 34  -15.5084 26124.2   3423.8   7.4666 26347.6
 02 09 2016  08 35  -15.5080 26123.0   3423.3   7.4657 26346.4
 02 09 2016  08 36  -15.5082 26122.0   3422.6   7.4645 26345.3
 02 09 2016  08 37  -15.5085 26121.7   3422.2   7.4639 26344.9
 02 09 2016  08 38  -15.5095 26121.2   3422.2   7.4640 26344.4
 02 09 2016  08 39  -15.5094 26121.4   3422.2   7.4639 26344.6
 02 09 2016  08 40  -15.5094 26121.8   3423.3   7.4662 26345.2
 02 09 2016  08 41  -15.5095 26122.4   3423.5   7.4664 26345.8
 02 09 2016  08 42  -15.5093 26122.7   3423.4   7.4661 26346.1
 02 09 2016  08 43  -15.5084 26123.3   3424.0   7.4673 26346.7
 02 09 2016  08 44  -15.5088 26123.2   3423.6   7.4664 26346.6
 02 09 2016  08 45  -15.5085 26123.2   3423.9   7.4670 26346.6
 02 09 2016  08 46  -15.5092 26123.3   3423.5   7.4662 26346.7
 02 09 2016  08 47  -15.5095 26123.7   3423.9   7.4669 26347.2
 02 09 2016  08 48  -15.5094 26124.7   3424.1   7.4671 26348.2
 02 09 2016  08 49  -15.5101 26126.0   3425.5   7.4696 26349.6
 02 09 2016  08 50  -15.5099 26127.0   3424.8   7.4679 26350.5
 02 09 2016  08 51  -15.5090 26127.0   3425.5   7.4693 26350.6
 02 09 2016  08 52  -15.5089 26126.5   3424.4   7.4672 26349.9
 02 09 2016  08 53  -15.5084 26126.0   3423.9   7.4662 26349.4
 02 09 2016  08 54  -15.5086 26125.8   3423.4   7.4651 26349.1
 02 09 2016  08 55  -15.5089 26125.1   3423.3   7.4653 26348.4
 02 09 2016  08 56  -15.5079 26124.8   3423.6   7.4659 26348.1
 02 09 2016  08 57  -15.5069 26124.7   3423.9   7.4667 26348.1
 02 09 2016  08 58  -15.5070 26124.4   3424.2   7.4674 26347.9
 02 09 2016  08 59  -15.5065 26125.0   3424.2   7.4671 26348.4
 02 09 2016  09 00  -15.5071 26125.0   3423.5   7.4658 26348.4
 02 09 2016  09 01  -15.5074 26125.4   3423.9   7.4664 26348.8
 02 09 2016  09 02  -15.5091 26127.3   3424.2   7.4666 26350.7
 02 09 2016  09 03  -15.5095 26129.0   3425.3   7.4684 26352.5
 02 09 2016  09 04  -15.5082 26129.6   3425.8   7.4694 26353.3
 02 09 2016  09 05  -15.5070 26128.9   3425.4   7.4686 26352.5
 02 09 2016  09 06  -15.5066 26127.6   3424.0   7.4660 26351.0
 02 09 2016  09 07  -15.5059 26127.1   3423.9   7.4659 26350.5
 02 09 2016  09 08  -15.5073 26126.3   3423.6   7.4656 26349.7
 02 09 2016  09 09  -15.5064 26126.0   3423.3   7.4649 26349.4
 02 09 2016  09 10  -15.5067 26125.8   3422.3   7.4629 26349.0
 02 09 2016  09 11  -15.5070 26125.7   3422.3   7.4628 26348.9
 02 09 2016  09 12  -15.5058 26125.6   3421.7   7.4615 26348.7
 02 09 2016  09 13  -15.5046 26125.6   3421.8   7.4619 26348.7
 02 09 2016  09 14  -15.5039 26125.3   3421.9   7.4621 26348.5
 02 09 2016  09 15  -15.5033 26125.1   3422.1   7.4627 26348.2
 02 09 2016  09 16  -15.5041 26124.6   3421.4   7.4612 26347.7
 02 09 2016  09 17  -15.5044 26123.9   3421.6   7.4618 26347.0
 02 09 2016  09 18  -15.5046 26123.3   3421.9   7.4628 26346.5
 02 09 2016  09 19  -15.5043 26123.8   3421.6   7.4620 26347.0
 02 09 2016  09 20  -15.5056 26125.0   3422.8   7.4641 26348.2
 02 09 2016  09 21  -15.5066 26126.2   3424.1   7.4667 26349.6
 02 09 2016  09 22  -15.5063 26126.9   3425.1   7.4686 26350.5
 02 09 2016  09 23  -15.5042 26127.2   3424.7   7.4677 26350.7
 02 09 2016  09 24  -15.5033 26127.0   3424.0   7.4662 26350.4
 02 09 2016  09 25  -15.5029 26126.8   3423.2   7.4645 26350.1
 02 09 2016  09 26  -15.5030 26126.4   3423.4   7.4650 26349.7
 02 09 2016  09 27  -15.5037 26125.8   3423.2   7.4649 26349.1
 02 09 2016  09 28  -15.5026 26126.2   3423.0   7.4643 26349.5
 02 09 2016  09 29  -15.5031 26126.9   3424.1   7.4665 26350.4
 02 09 2016  09 30  -15.5037 26127.7   3423.8   7.4657 26351.1
 02 09 2016  09 31  -15.5028 26128.6   3424.3   7.4664 26352.1
 02 09 2016  09 32  -15.5031 26129.3   3425.3   7.4682 26352.8
 02 09 2016  09 33  -15.5050 26129.5   3424.6   7.4668 26353.0
 02 09 2016  09 34  -15.5053 26129.4   3423.9   7.4652 26352.8
 02 09 2016  09 35  -15.5048 26129.0   3424.5   7.4667 26352.4
 02 09 2016  09 36  -15.5043 26129.4   3424.2   7.4659 26352.8
 02 09 2016  09 37  -15.5061 26129.6   3424.4   7.4664 26353.0
 02 09 2016  09 38  -15.5062 26130.1   3423.9   7.4652 26353.4
 02 09 2016  09 39  -15.5042 26129.9   3425.0   7.4674 26353.4
 02 09 2016  09 40  -15.5037 26129.4   3423.9   7.4654 26352.8
 02 09 2016  09 41  -15.5044 26128.7   3423.5   7.4647 26352.0
 02 09 2016  09 42  -15.5039 26127.9   3423.3   7.4643 26351.2
 02 09 2016  09 43  -15.5025 26127.4   3423.5   7.4650 26350.7
 02 09 2016  09 44  -15.5028 26127.0   3422.9   7.4638 26350.3
 02 09 2016  09 45  -15.5055 26126.9   3422.3   7.4625 26350.1
 02 09 2016  09 46  -15.5074 26126.9   3422.3   7.4626 26350.1
 02 09 2016  09 47  -15.5044 26126.8   3423.2   7.4645 26350.1
 02 09 2016  09 48  -15.5038 26126.3   3424.0   7.4663 26349.7
 02 09 2016  09 49  -15.5035 26126.3   3424.1   7.4665 26349.7
 02 09 2016  09 50  -15.5028 26126.0   3424.4   7.4672 26349.5
 02 09 2016  09 51  -15.5018 26126.4   3424.3   7.4670 26349.9
 02 09 2016  09 52  -15.5005 26126.5   3424.8   7.4681 26350.0
 02 09 2016  09 53  -15.5001 26126.6   3424.9   7.4683 26350.1
 02 09 2016  09 54  -15.5004 26126.6   3424.8   7.4681 26350.1
 02 09 2016  09 55  -15.5006 26127.0   3425.3   7.4689 26350.6
 02 09 2016  09 56  -15.4999 26127.9   3426.0   7.4703 26351.5
 02 09 2016  09 57  -15.4993 26128.0   3426.0   7.4701 26351.6
 02 09 2016  09 58  -15.5007 26127.2   3425.5   7.4693 26350.8
 02 09 2016  09 59  -15.5013 26127.2   3424.7   7.4675 26350.7
 02 09 2016  10 00  -15.5012 26127.3   3425.2   7.4688 26350.8
 02 09 2016  10 01  -15.5014 26126.8   3425.8   7.4700 26350.5
 02 09 2016  10 02  -15.5024 26126.2   3424.9   7.4685 26349.7
 02 09 2016  10 03  -15.5029 26125.6   3424.8   7.4683 26349.1
 02 09 2016  10 04  -15.5039 26125.3   3424.8   7.4684 26348.9
 02 09 2016  10 05  -15.5050 26125.2   3424.6   7.4679 26348.7
 02 09 2016  10 06  -15.5051 26125.6   3425.9   7.4706 26349.2
 02 09 2016  10 07  -15.5029 26126.1   3426.5   7.4718 26349.8
 02 09 2016  10 08  -15.5008 26126.0   3426.9   7.4727 26349.8
 02 09 2016  10 09  -15.5005 26125.7   3426.6   7.4721 26349.4
 02 09 2016  10 10  -15.5006 26125.7   3425.9   7.4707 26349.4
 02 09 2016  10 11  -15.4999 26125.7   3426.2   7.4714 26349.4
 02 09 2016  10 12  -15.4987 26125.3   3426.6   7.4723 26349.1
 02 09 2016  10 13  -15.4990 26125.0   3427.2   7.4736 26348.8
 02 09 2016  10 14  -15.4982 26125.6   3427.1   7.4732 26349.4
 02 09 2016  10 15  -15.4980 26126.3   3427.5   7.4740 26350.2
 02 09 2016  10 16  -15.4978 26126.5   3428.6   7.4762 26350.5
 02 09 2016  10 17  -15.4963 26126.8   3428.9   7.4768 26350.8
 02 09 2016  10 18  -15.4954 26126.7   3428.5   7.4759 26350.7
 02 09 2016  10 19  -15.4955 26126.7   3428.4   7.4757 26350.7
 02 09 2016  10 20  -15.4970 26126.2   3427.8   7.4747 26350.1
 02 09 2016  10 21  -15.4970 26125.6   3427.6   7.4742 26349.5
 02 09 2016  10 22  -15.4963 26125.7   3428.1   7.4754 26349.6
 02 09 2016  10 23  -15.4966 26125.2   3427.9   7.4751 26349.1
 02 09 2016  10 24  -15.4966 26125.0   3428.1   7.4757 26348.9
 02 09 2016  10 25  -15.4968 26124.4   3427.9   7.4753 26348.4
 02 09 2016  10 26  -15.4973 26124.1   3427.8   7.4751 26348.0
 02 09 2016  10 27  -15.4977 26123.8   3428.3   7.4763 26347.8
 02 09 2016  10 28  -15.4988 26123.9   3428.6   7.4770 26347.9
 02 09 2016  10 29  -15.4986 26124.4   3429.8   7.4795 26348.6
 02 09 2016  10 30  -15.4982 26124.4   3429.0   7.4777 26348.5
 02 09 2016  10 31  -15.4976 26124.3   3430.2   7.4804 26348.6
 02 09 2016  10 32  -15.4975 26124.3   3430.4   7.4807 26348.6
 02 09 2016  10 33  -15.4972 26124.6   3430.6   7.4811 26348.8
 02 09 2016  10 34  -15.4966 26125.0   3430.8   7.4815 26349.3
 02 09 2016  10 35  -15.4966 26126.1   3431.4   7.4823 26350.5
 02 09 2016  10 36  -15.4961 26127.1   3431.6   7.4826 26351.5
 02 09 2016  10 37  -15.4940 26128.0   3432.4   7.4841 26352.5
 02 09 2016  10 38  -15.4897 26128.8   3432.7   7.4844 26353.3
 02 09 2016  10 39  -15.4872 26130.1   3432.9   7.4844 26354.6
 02 09 2016  10 40  -15.4882 26131.0   3432.4   7.4833 26355.4
 02 09 2016  10 41  -15.4890 26131.2   3431.4   7.4810 26355.6
 02 09 2016  10 42  -15.4895 26130.9   3431.8   7.4819 26355.2
 02 09 2016  10 43  -15.4885 26131.4   3432.1   7.4824 26355.8
 02 09 2016  10 44  -15.4874 26131.6   3431.9   7.4818 26356.0
 02 09 2016  10 45  -15.4880 26131.7   3431.0   7.4800 26356.0
 02 09 2016  10 46  -15.4876 26132.1   3430.5   7.4787 26356.4
 02 09 2016  10 47  -15.4898 26132.1   3430.1   7.4780 26356.2
 02 09 2016  10 48  -15.4917 26131.5   3429.8   7.4774 26355.6
 02 09 2016  10 49  -15.4923 26131.8   3430.1   7.4780 26355.9
 02 09 2016  10 50  -15.4923 26132.6   3430.4   7.4785 26356.8
 02 09 2016  10 51  -15.4921 26133.1   3431.6   7.4808 26357.4
 02 09 2016  10 52  -15.4931 26133.5   3431.2   7.4799 26357.8
 02 09 2016  10 53  -15.4922 26133.8   3431.2   7.4799 26358.1
 02 09 2016  10 54  -15.4864 26134.9   3432.6   7.4824 26359.4
 02 09 2016  10 55  -15.4824 26136.3   3431.7   7.4801 26360.6
 02 09 2016  10 56  -15.4849 26136.4   3430.4   7.4772 26360.5
 02 09 2016  10 57  -15.4879 26136.1   3430.2   7.4770 26360.2
 02 09 2016  10 58  -15.4871 26136.5   3430.1   7.4767 26360.6
 02 09 2016  10 59  -15.4861 26136.7   3430.5   7.4775 26360.9
 02 09 2016  11 00  -15.4850 26137.1   3430.6   7.4775 26361.2
 02 09 2016  11 01  -15.4838 26137.2   3429.6   7.4753 26361.3
 02 09 2016  11 02  -15.4841 26136.9   3429.5   7.4752 26361.0
 02 09 2016  11 03  -15.4838 26136.9   3429.0   7.4742 26360.9
 02 09 2016  11 04  -15.4837 26137.5   3429.3   7.4745 26361.5
 02 09 2016  11 05  -15.4837 26137.7   3428.6   7.4731 26361.6
 02 09 2016  11 06  -15.4835 26137.0   3428.9   7.4740 26360.9
 02 09 2016  11 07  -15.4839 26136.3   3428.6   7.4735 26360.3
 02 09 2016  11 08  -15.4854 26135.7   3428.7   7.4738 26359.6
 02 09 2016  11 09  -15.4841 26135.4   3428.8   7.4742 26359.4
 02 09 2016  11 10  -15.4853 26134.2   3429.4   7.4757 26358.3
 02 09 2016  11 11  -15.4873 26133.0   3428.2   7.4735 26356.9
 02 09 2016  11 12  -15.4887 26131.7   3428.2   7.4739 26355.7
 02 09 2016  11 13  -15.4889 26130.9   3429.2   7.4763 26355.0
 02 09 2016  11 14  -15.4880 26130.5   3430.1   7.4783 26354.7
 02 09 2016  11 15  -15.4865 26130.4   3430.4   7.4790 26354.6
 02 09 2016  11 16  -15.4863 26130.0   3430.6   7.4795 26354.2
 02 09 2016  11 17  -15.4865 26129.3   3430.2   7.4788 26353.5
 02 09 2016  11 18  -15.4859 26128.8   3431.2   7.4812 26353.1
 02 09 2016  11 19  -15.4861 26127.7   3430.6   7.4802 26352.0
 02 09 2016  11 20  -15.4875 26126.8   3430.2   7.4797 26351.0
 02 09 2016  11 21  -15.4891 26126.3   3431.0   7.4816 26350.7
 02 09 2016  11 22  -15.4888 26126.3   3432.2   7.4841 26350.8
 02 09 2016  11 23  -15.4870 26126.9   3432.6   7.4848 26351.4
 02 09 2016  11 24  -15.4871 26126.9   3433.2   7.4861 26351.5
 02 09 2016  11 25  -15.4887 26126.2   3433.3   7.4866 26350.9
 02 09 2016  11 26  -15.4887 26125.9   3433.0   7.4858 26350.4
 02 09 2016  11 27  -15.4879 26126.1   3433.3   7.4864 26350.8
 02 09 2016  11 28  -15.4855 26127.7   3433.8   7.4870 26352.4
 02 09 2016  11 29  -15.4837 26129.7   3434.3   7.4877 26354.4
 02 09 2016  11 30  -15.4828 26129.2   3432.6   7.4841 26353.8
 02 09 2016  11 31  -15.4859 26126.9   3430.5   7.4802 26351.1
 02 09 2016  11 32  -15.4866 26126.6   3430.6   7.4805 26350.9
 02 09 2016  11 33  -15.4852 26127.8   3431.9   7.4829 26352.2
 02 09 2016  11 34  -15.4832 26128.3   3432.8   7.4849 26352.9
 02 09 2016  11 35  -15.4831 26128.2   3432.7   7.4846 26352.7
 02 09 2016  11 36  -15.4842 26127.6   3431.9   7.4831 26352.0
 02 09 2016  11 37  -15.4850 26127.0   3431.4   7.4821 26351.3
 02 09 2016  11 38  -15.4861 26127.0   3431.0   7.4813 26351.3
 02 09 2016  11 39  -15.4881 26124.7   3429.6   7.4790 26348.9
 02 09 2016  11 40  -15.4889 26123.4   3429.7   7.4795 26347.6
 02 09 2016  11 41  -15.4890 26123.1   3430.3   7.4808 26347.3
 02 09 2016  11 42  -15.4893 26122.3   3431.2   7.4831 26346.6
 02 09 2016  11 43  -15.4926 26120.6   3429.9   7.4807 26344.8
 02 09 2016  11 44  -15.4930 26119.6   3430.3   7.4819 26343.9
 02 09 2016  11 45  -15.4904 26120.6   3431.6   7.4844 26345.1
 02 09 2016  11 46  -15.4890 26121.3   3432.6   7.4864 26345.9
 02 09 2016  11 47  -15.4865 26122.7   3433.3   7.4874 26347.4
 02 09 2016  11 48  -15.4842 26124.2   3434.4   7.4894 26348.9
 02 09 2016  11 49  -15.4834 26126.0   3433.0   7.4859 26350.6
 02 09 2016  11 50  -15.4842 26126.8   3432.4   7.4843 26351.3
 02 09 2016  11 51  -15.4837 26128.3   3432.4   7.4840 26352.8
 02 09 2016  11 52  -15.4836 26129.3   3432.0   7.4827 26353.7
 02 09 2016  11 53  -15.4841 26130.1   3430.9   7.4802 26354.4
 02 09 2016  11 54  -15.4843 26131.2   3430.6   7.4793 26355.4
 02 09 2016  11 55  -15.4837 26133.2   3430.2   7.4778 26357.3
 02 09 2016  11 56  -15.4831 26135.3   3429.7   7.4761 26359.3
 02 09 2016  11 57  -15.4839 26136.4   3428.8   7.4739 26360.4
 02 09 2016  11 58  -15.4832 26137.8   3427.7   7.4711 26361.6
 02 09 2016  11 59  -15.4836 26136.8   3426.8   7.4693 26360.5
 02 09 2016  12 00  -15.4852 26135.9   3424.8   7.4654 26359.3
 02 09 2016  12 01  -15.4866 26135.1   3425.7   7.4676 26358.6
 02 09 2016  12 02  -15.4871 26133.9   3425.0   7.4664 26357.4
 02 09 2016  12 03  -15.4890 26130.1   3423.4   7.4639 26353.4
 02 09 2016  12 04  -15.4890 26128.5   3424.0   7.4658 26351.9
 02 09 2016  12 05  -15.4884 26128.8   3425.8   7.4696 26352.4
 02 09 2016  12 06  -15.4876 26129.8   3426.7   7.4712 26353.6
 02 09 2016  12 07  -15.4863 26131.4   3426.7   7.4708 26355.1
 02 09 2016  12 08  -15.4873 26131.8   3426.6   7.4704 26355.6
 02 09 2016  12 09  -15.4889 26131.4   3425.3   7.4677 26354.9
 02 09 2016  12 10  -15.4893 26131.1   3425.8   7.4689 26354.7
 02 09 2016  12 11  -15.4896 26131.8   3425.9   7.4689 26355.4
 02 09 2016  12 12  -15.4884 26134.0   3426.7   7.4701 26357.7
 02 09 2016  12 13  -15.4874 26136.3   3426.7   7.4693 26360.0
 02 09 2016  12 14  -15.4863 26137.6   3426.2   7.4679 26361.2
 02 09 2016  12 15  -15.4864 26138.9   3424.7   7.4643 26362.3
 02 09 2016  12 16  -15.4861 26140.2   3424.3   7.4632 26363.6
 02 09 2016  12 17  -15.4872 26140.3   3423.1   7.4604 26363.5
 02 09 2016  12 18  -15.4892 26139.1   3421.8   7.4581 26362.1
 02 09 2016  12 19  -15.4907 26139.4   3420.7   7.4557 26362.3
 02 09 2016  12 20  -15.4912 26140.2   3420.4   7.4547 26363.0
 02 09 2016  12 21  -15.4908 26141.2   3421.1   7.4560 26364.1
 02 09 2016  12 22  -15.4903 26142.8   3420.7   7.4545 26365.7
 02 09 2016  12 23  -15.4892 26143.5   3420.1   7.4531 26366.2
 02 09 2016  12 24  -15.4907 26142.7   3418.5   7.4499 26365.3
 02 09 2016  12 25  -15.4925 26141.8   3417.1   7.4471 26364.2
 02 09 2016  12 26  -15.4940 26141.4   3417.1   7.4472 26363.8
 02 09 2016  12 27  -15.4943 26141.9   3417.5   7.4479 26364.4
 02 09 2016  12 28  -15.4945 26142.1   3417.1   7.4471 26364.4
 02 09 2016  12 29  -15.4952 26141.9   3416.6   7.4461 26364.3
 02 09 2016  12 30  -15.4954 26141.7   3416.4   7.4457 26363.9
 02 09 2016  12 31  -15.4957 26140.9   3416.1   7.4453 26363.1
 02 09 2016  12 32  -15.4965 26140.0   3416.1   7.4456 26362.2
 02 09 2016  12 33  -15.4968 26138.9   3416.2   7.4459 26361.2
 02 09 2016  12 34  -15.4978 26137.5   3416.1   7.4462 26359.8
 02 09 2016  12 35  -15.4991 26136.3   3416.1   7.4465 26358.6
 02 09 2016  12 36  -15.5006 26135.7   3416.8   7.4481 26358.1
 02 09 2016  12 37  -15.5011 26135.6   3417.7   7.4502 26358.1
 02 09 2016  12 38  -15.5021 26134.6   3418.0   7.4511 26357.2
 02 09 2016  12 39  -15.5023 26134.7   3419.0   7.4532 26357.4
 02 09 2016  12 40  -15.5015 26135.9   3420.0   7.4551 26358.7
 02 09 2016  12 41  -15.5004 26137.5   3420.8   7.4564 26360.4
 02 09 2016  12 42  -15.4993 26138.4   3420.8   7.4562 26361.3
 02 09 2016  12 43  -15.4991 26138.7   3420.5   7.4554 26361.6
 02 09 2016  12 44  -15.4973 26140.2   3420.5   7.4548 26363.0
 02 09 2016  12 45  -15.4974 26140.3   3419.5   7.4526 26363.0
 02 09 2016  12 46  -15.4990 26140.6   3417.6   7.4486 26363.1
 02 09 2016  12 47  -15.5006 26139.7   3417.0   7.4475 26362.1
 02 09 2016  12 48  -15.5034 26137.7   3416.3   7.4466 26360.1
 02 09 2016  12 49  -15.5040 26137.4   3416.3   7.4467 26359.7
 02 09 2016  12 50  -15.5040 26138.5   3417.5   7.4488 26361.0
 02 09 2016  12 51  -15.5013 26141.9   3419.1   7.4514 26364.6
 02 09 2016  12 52  -15.4982 26146.4   3420.1   7.4522 26369.2
 02 09 2016  12 53  -15.4953 26150.4   3419.4   7.4496 26373.1
 02 09 2016  12 54  -15.4978 26150.6   3416.0   7.4423 26372.8
 02 09 2016  12 55  -15.4992 26150.3   3413.5   7.4370 26372.2
 02 09 2016  12 56  -15.4975 26151.9   3412.8   7.4350 26373.6
 02 09 2016  12 57  -15.4963 26153.2   3412.1   7.4331 26374.8
 02 09 2016  12 58  -15.4970 26152.5   3410.1   7.4290 26373.9
 02 09 2016  12 59  -15.4969 26152.7   3409.8   7.4284 26374.1
 02 09 2016  13 00  -15.4965 26154.8   3409.0   7.4260 26376.1
 02 09 2016  13 01  -15.4970 26156.6   3408.5   7.4245 26377.7
 02 09 2016  13 02  -15.4969 26158.8   3408.6   7.4241 26380.0
 02 09 2016  13 03  -15.4973 26159.6   3406.4   7.4192 26380.4
 02 09 2016  13 04  -15.4972 26158.4   3404.4   7.4152 26379.0
 02 09 2016  13 05  -15.4987 26156.2   3402.8   7.4123 26376.6
 02 09 2016  13 06  -15.4984 26156.6   3402.5   7.4114 26376.9
 02 09 2016  13 07  -15.4983 26157.5   3402.1   7.4105 26377.8
 02 09 2016  13 08  -15.4991 26157.0   3401.5   7.4093 26377.2
 02 09 2016  13 09  -15.4985 26156.5   3401.0   7.4083 26376.7
 02 09 2016  13 10  -15.4983 26154.6   3399.4   7.4055 26374.6
 02 09 2016  13 11  -15.4992 26153.1   3398.6   7.4041 26373.0
 02 09 2016  13 12  -15.5007 26149.6   3396.9   7.4015 26369.3
 02 09 2016  13 13  -15.5038 26145.1   3395.5   7.3996 26364.7
 02 09 2016  13 14  -15.5059 26143.4   3397.3   7.4041 26363.2
 02 09 2016  13 15  -15.5066 26143.6   3398.6   7.4067 26363.6
 02 09 2016  13 16  -15.5079 26142.8   3400.0   7.4100 26363.0
 02 09 2016  13 17  -15.5099 26139.4   3399.1   7.4090 26359.5
 02 09 2016  13 18  -15.5129 26135.2   3399.1   7.4103 26355.3
 02 09 2016  13 19  -15.5141 26132.9   3400.6   7.4140 26353.2
 02 09 2016  13 20  -15.5153 26131.1   3402.6   7.4190 26351.7
 02 09 2016  13 21  -15.5147 26130.1   3404.6   7.4235 26351.0
 02 09 2016  13 22  -15.5145 26129.1   3405.8   7.4264 26350.2
 02 09 2016  13 23  -15.5145 26128.7   3406.7   7.4285 26349.9
 02 09 2016  13 24  -15.5145 26130.0   3408.3   7.4315 26351.4
 02 09 2016  13 25  -15.5164 26128.7   3408.6   7.4325 26350.1
 02 09 2016  13 26  -15.5189 26126.9   3408.8   7.4335 26348.3
 02 09 2016  13 27  -15.5199 26125.2   3409.7   7.4358 26346.7
 02 09 2016  13 28  -15.5196 26125.9   3412.6   7.4419 26347.9
 02 09 2016  13 29  -15.5190 26128.4   3414.7   7.4457 26350.6
 02 09 2016  13 30  -15.5178 26131.3   3415.0   7.4455 26353.5
 02 09 2016  13 31  -15.5161 26134.9   3415.5   7.4456 26357.1
 02 09 2016  13 32  -15.5147 26136.3   3414.5   7.4430 26358.4
 02 09 2016  13 33  -15.5139 26139.4   3414.3   7.4419 26361.5
 02 09 2016  13 34  -15.5124 26143.6   3413.5   7.4388 26365.5
 02 09 2016  13 35  -15.5129 26145.5   3411.6   7.4342 26367.1
 02 09 2016  13 36  -15.5134 26148.3   3410.4   7.4308 26369.7
 02 09 2016  13 37  -15.5151 26147.0   3407.5   7.4251 26368.1
 02 09 2016  13 38  -15.5152 26148.8   3406.9   7.4231 26369.8
 02 09 2016  13 39  -15.5139 26152.4   3406.9   7.4222 26373.4
 02 09 2016  13 40  -15.5157 26149.1   3403.1   7.4149 26369.6
 02 09 2016  13 41  -15.5169 26146.7   3401.6   7.4124 26367.1
 02 09 2016  13 42  -15.5175 26146.9   3401.9   7.4128 26367.3
 02 09 2016  13 43  -15.5176 26145.3   3401.8   7.4132 26365.6
 02 09 2016  13 44  -15.5181 26142.3   3401.3   7.4130 26362.7
 02 09 2016  13 45  -15.5193 26139.1   3400.6   7.4124 26359.4
 02 09 2016  13 46  -15.5199 26136.7   3401.6   7.4152 26357.1
 02 09 2016  13 47  -15.5194 26136.5   3403.8   7.4199 26357.2
 02 09 2016  13 48  -15.5190 26136.7   3405.7   7.4240 26357.7
 02 09 2016  13 49  -15.5191 26137.5   3407.3   7.4273 26358.7
 02 09 2016  13 50  -15.5196 26138.0   3408.1   7.4289 26359.3
 02 09 2016  13 51  -15.5207 26137.8   3408.1   7.4288 26359.1
 02 09 2016  13 52  -15.5224 26137.0   3408.0   7.4288 26358.3
 02 09 2016  13 53  -15.5230 26136.0   3408.7   7.4307 26357.3
 02 09 2016  13 54  -15.5240 26135.3   3408.8   7.4311 26356.6
 02 09 2016  13 55  -15.5237 26135.1   3409.2   7.4320 26356.5
 02 09 2016  13 56  -15.5244 26134.5   3409.3   7.4324 26355.9
 02 09 2016  13 57  -15.5255 26134.9   3409.7   7.4332 26356.4
 02 09 2016  13 58  -15.5262 26134.7   3410.1   7.4341 26356.3
 02 09 2016  13 59  -15.5256 26135.0   3410.7   7.4353 26356.6
 02 09 2016  14 00  -15.5248 26135.7   3412.0   7.4379 26357.5
 02 09 2016  14 01  -15.5251 26136.1   3411.6   7.4369 26357.9
 02 09 2016  14 02  -15.5249 26137.5   3411.7   7.4367 26359.2
 02 09 2016  14 03  -15.5245 26138.6   3412.1   7.4373 26360.3
 02 09 2016  14 04  -15.5229 26141.2   3412.1   7.4366 26363.0
 02 09 2016  14 05  -15.5218 26142.8   3411.5   7.4347 26364.5
 02 09 2016  14 06  -15.5216 26141.3   3408.7   7.4291 26362.6
 02 09 2016  14 07  -15.5199 26140.3   3407.2   7.4261 26361.5
 02 09 2016  14 08  -15.5181 26141.8   3407.7   7.4268 26363.0
 02 09 2016  14 09  -15.5162 26143.2   3407.9   7.4268 26364.4
 02 09 2016  14 10  -15.5149 26145.5   3407.9   7.4264 26366.6
 02 09 2016  14 11  -15.5140 26146.7   3407.0   7.4240 26367.7
 02 09 2016  14 12  -15.5138 26145.3   3404.2   7.4183 26365.9
 02 09 2016  14 13  -15.5144 26144.2   3401.8   7.4136 26364.6
 02 09 2016  14 14  -15.5136 26144.4   3401.1   7.4119 26364.7
 02 09 2016  14 15  -15.5132 26145.7   3400.7   7.4106 26366.0
 02 09 2016  14 16  -15.5118 26147.9   3400.4   7.4094 26368.1
 02 09 2016  14 17  -15.5107 26149.8   3399.6   7.4072 26369.8
 02 09 2016  14 18  -15.5098 26151.7   3398.3   7.4039 26371.6
 02 09 2016  14 19  -15.5099 26152.1   3396.9   7.4006 26371.8
 02 09 2016  14 20  -15.5103 26154.4   3395.6   7.3973 26373.9
 02 09 2016  14 21  -15.5094 26157.8   3395.4   7.3959 26377.2
 02 09 2016  14 22  -15.5109 26159.6   3393.6   7.3916 26378.8
 02 09 2016  14 23  -15.5116 26162.0   3393.1   7.3899 26381.1
 02 09 2016  14 24  -15.5123 26163.5   3391.8   7.3867 26382.4
 02 09 2016  14 25  -15.5139 26162.6   3389.2   7.3812 26381.2
 02 09 2016  14 26  -15.5146 26162.7   3387.6   7.3778 26381.1
 02 09 2016  14 27  -15.5148 26163.4   3387.2   7.3767 26381.7
 02 09 2016  14 28  -15.5161 26163.4   3387.1   7.3764 26381.7
 02 09 2016  14 29  -15.5180 26162.4   3386.4   7.3751 26380.6
 02 09 2016  14 30  -15.5198 26161.2   3385.1   7.3727 26379.3
 02 09 2016  14 31  -15.5219 26159.2   3384.8   7.3728 26377.3
 02 09 2016  14 32  -15.5243 26156.7   3384.1   7.3718 26374.7
 02 09 2016  14 33  -15.5249 26154.2   3385.0   7.3745 26372.4
 02 09 2016  14 34  -15.5256 26153.2   3385.6   7.3762 26371.5
 02 09 2016  14 35  -15.5259 26152.1   3386.2   7.3778 26370.4
 02 09 2016  14 36  -15.5275 26149.9   3386.2   7.3782 26368.2
 02 09 2016  14 37  -15.5288 26149.0   3387.3   7.3809 26367.4
 02 09 2016  14 38  -15.5298 26149.0   3388.5   7.3836 26367.6
 02 09 2016  14 39  -15.5300 26148.6   3389.1   7.3849 26367.3
 02 09 2016  14 40  -15.5304 26148.4   3389.5   7.3858 26367.2
 02 09 2016  14 41  -15.5311 26146.7   3389.9   7.3872 26365.6
 02 09 2016  14 42  -15.5326 26144.5   3390.2   7.3884 26363.4
 02 09 2016  14 43  -15.5329 26145.0   3391.3   7.3906 26364.1
 02 09 2016  14 44  -15.5332 26144.3   3392.8   7.3940 26363.5
 02 09 2016  14 45  -15.5339 26143.0   3392.8   7.3943 26362.2
 02 09 2016  14 46  -15.5340 26142.3   3393.5   7.3961 26361.6
 02 09 2016  14 47  -15.5335 26142.4   3395.0   7.3993 26361.9
 02 09 2016  14 48  -15.5340 26142.2   3395.2   7.3998 26361.7
 02 09 2016  14 49  -15.5342 26142.3   3395.8   7.4010 26361.9
 02 09 2016  14 50  -15.5352 26141.0   3396.2   7.4023 26360.7
 02 09 2016  14 51  -15.5351 26140.7   3396.9   7.4039 26360.5
 02 09 2016  14 52  -15.5351 26139.6   3397.9   7.4063 26359.5
 02 09 2016  14 53  -15.5347 26139.5   3398.2   7.4071 26359.5
 02 09 2016  14 54  -15.5335 26142.0   3400.5   7.4112 26362.3
 02 09 2016  14 55  -15.5337 26143.6   3401.6   7.4132 26364.0
 02 09 2016  14 56  -15.5347 26142.7   3401.0   7.4122 26363.0
 02 09 2016  14 57  -15.5334 26142.6   3401.4   7.4131 26362.9
 02 09 2016  14 58  -15.5328 26145.9   3402.5   7.4146 26366.3
 02 09 2016  14 59  -15.5331 26148.2   3402.4   7.4136 26368.6
 02 09 2016  15 00  -15.5321 26149.3   3401.3   7.4110 26369.5
 02 09 2016  15 01  -15.5324 26150.2   3400.9   7.4099 26370.5
 02 09 2016  15 02  -15.5322 26151.4   3400.9   7.4095 26371.6
 02 09 2016  15 03  -15.5324 26151.1   3400.2   7.4081 26371.2
 02 09 2016  15 04  -15.5327 26150.2   3400.0   7.4079 26370.3
 02 09 2016  15 05  -15.5326 26150.3   3399.1   7.4060 26370.3
 02 09 2016  15 06  -15.5319 26151.1   3400.1   7.4078 26371.2
 02 09 2016  15 07  -15.5319 26150.7   3401.3   7.4105 26371.0
 02 09 2016  15 08  -15.5327 26148.9   3399.5   7.4072 26369.0
 02 09 2016  15 09  -15.5321 26147.7   3400.7   7.4102 26368.0
 02 09 2016  15 10  -15.5308 26148.1   3401.9   7.4127 26368.5
 02 09 2016  15 11  -15.5309 26149.1   3402.1   7.4128 26369.5
 02 09 2016  15 12  -15.5308 26148.6   3403.2   7.4152 26369.2
 02 09 2016  15 13  -15.5310 26147.7   3402.3   7.4136 26368.2
 02 09 2016  15 14  -15.5298 26148.3   3403.2   7.4154 26368.8
 02 09 2016  15 15  -15.5285 26149.3   3404.7   7.4182 26370.0
 02 09 2016  15 16  -15.5276 26150.2   3404.9   7.4185 26370.9
 02 09 2016  15 17  -15.5270 26150.3   3404.7   7.4179 26371.0
 02 09 2016  15 18  -15.5262 26151.1   3404.6   7.4177 26371.8
 02 09 2016  15 19  -15.5262 26151.8   3403.8   7.4157 26372.4
 02 09 2016  15 20  -15.5272 26151.7   3403.4   7.4149 26372.2
 02 09 2016  15 21  -15.5280 26151.2   3403.3   7.4147 26371.7
 02 09 2016  15 22  -15.5293 26150.6   3402.5   7.4133 26371.0
 02 09 2016  15 23  -15.5294 26150.1   3403.5   7.4154 26370.6
 02 09 2016  15 24  -15.5295 26149.6   3403.2   7.4150 26370.1
 02 09 2016  15 25  -15.5292 26150.0   3404.1   7.4168 26370.7
 02 09 2016  15 26  -15.5287 26150.0   3404.2   7.4169 26370.6
 02 09 2016  15 27  -15.5284 26149.9   3403.2   7.4150 26370.4
 02 09 2016  15 28  -15.5289 26149.1   3403.6   7.4160 26369.7
 02 09 2016  15 29  -15.5286 26148.8   3403.9   7.4168 26369.4
 02 09 2016  15 30  -15.5295 26148.6   3403.5   7.4159 26369.1
 02 09 2016  15 31  -15.5307 26148.7   3404.1   7.4171 26369.3
 02 09 2016  15 32  -15.5311 26148.2   3404.0   7.4172 26368.8
 02 09 2016  15 33  -15.5311 26148.6   3404.2   7.4175 26369.3
 02 09 2016  15 34  -15.5309 26149.0   3404.4   7.4177 26369.7
 02 09 2016  15 35  -15.5300 26149.1   3404.6   7.4181 26369.8
 02 09 2016  15 36  -15.5301 26149.1   3403.4   7.4155 26369.6
 02 09 2016  15 37  -15.5292 26148.9   3403.3   7.4154 26369.5
 02 09 2016  15 38  -15.5295 26148.7   3402.0   7.4127 26369.1
 02 09 2016  15 39  -15.5298 26148.9   3402.6   7.4140 26369.3
 02 09 2016  15 40  -15.5301 26150.0   3402.1   7.4126 26370.3
 02 09 2016  15 41  -15.5296 26150.7   3401.5   7.4109 26371.0
 02 09 2016  15 42  -15.5300 26150.8   3401.1   7.4102 26371.0
 02 09 2016  15 43  -15.5300 26150.4   3399.6   7.4070 26370.4
 02 09 2016  15 44  -15.5293 26150.7   3399.9   7.4077 26370.8
 02 09 2016  15 45  -15.5295 26151.9   3399.3   7.4060 26371.9
 02 09 2016  15 46  -15.5291 26153.5   3399.9   7.4068 26373.6
 02 09 2016  15 47  -15.5296 26154.5   3398.7   7.4040 26374.4
 02 09 2016  15 48  -15.5296 26154.3   3397.6   7.4016 26374.0
 02 09 2016  15 49  -15.5296 26155.2   3397.0   7.4001 26374.8
 02 09 2016  15 50  -15.5295 26154.8   3395.7   7.3974 26374.3
 02 09 2016  15 51  -15.5298 26154.6   3395.1   7.3962 26374.0
 02 09 2016  15 52  -15.5301 26154.3   3393.8   7.3934 26373.6
 02 09 2016  15 53  -15.5295 26154.4   3393.2   7.3921 26373.6
 02 09 2016  15 54  -15.5293 26154.9   3393.6   7.3929 26374.2
 02 09 2016  15 55  -15.5304 26154.8   3393.2   7.3920 26374.0
 02 09 2016  15 56  -15.5299 26154.8   3393.5   7.3927 26374.0
 02 09 2016  15 57  -15.5309 26154.6   3392.7   7.3910 26373.7
 02 09 2016  15 58  -15.5303 26154.6   3393.0   7.3916 26373.8
 02 09 2016  15 59  -15.5304 26154.6   3393.4   7.3924 26373.8
 02 09 2016  16 00  -15.5313 26153.8   3393.1   7.3921 26373.0
 02 09 2016  16 01  -15.5316 26153.2   3393.4   7.3929 26372.4
 02 09 2016  16 02  -15.5322 26153.4   3394.4   7.3950 26372.8
 02 09 2016  16 03  -15.5331 26152.4   3394.2   7.3947 26371.7
 02 09 2016  16 04  -15.5335 26150.8   3394.5   7.3959 26370.2
 02 09 2016  16 05  -15.5339 26149.1   3395.2   7.3979 26368.6
 02 09 2016  16 06  -15.5341 26148.4   3396.7   7.4013 26368.1
 02 09 2016  16 07  -15.5348 26147.1   3397.7   7.4038 26366.9
 02 09 2016  16 08  -15.5351 26147.1   3398.6   7.4059 26367.0
 02 09 2016  16 09  -15.5351 26147.4   3400.0   7.4087 26367.5
 02 09 2016  16 10  -15.5363 26146.2   3400.0   7.4090 26366.4
 02 09 2016  16 11  -15.5370 26144.6   3400.8   7.4112 26364.9
 02 09 2016  16 12  -15.5366 26144.7   3402.3   7.4143 26365.2
 02 09 2016  16 13  -15.5364 26145.1   3403.9   7.4177 26365.8
 02 09 2016  16 14  -15.5368 26144.1   3404.4   7.4190 26364.8
 02 09 2016  16 15  -15.5355 26144.1   3406.2   7.4230 26365.0
 02 09 2016  16 16  -15.5357 26143.5   3406.5   7.4239 26364.5
 02 09 2016  16 17  -15.5351 26144.2   3407.5   7.4258 26365.3
 02 09 2016  16 18  -15.5350 26144.7   3407.9   7.4266 26365.8
 02 09 2016  16 19  -15.5348 26145.1   3408.4   7.4275 26366.3
 02 09 2016  16 20  -15.5359 26145.2   3407.4   7.4252 26366.3
 02 09 2016  16 21  -15.5354 26145.5   3408.7   7.4279 26366.8
 02 09 2016  16 22  -15.5357 26145.6   3408.6   7.4277 26366.9
 02 09 2016  16 23  -15.5358 26146.8   3408.8   7.4278 26368.0
 02 09 2016  16 24  -15.5359 26148.5   3409.1   7.4281 26369.8
 02 09 2016  16 25  -15.5361 26150.5   3408.8   7.4268 26371.7
 02 09 2016  16 26  -15.5358 26152.0   3408.5   7.4258 26373.2
 02 09 2016  16 27  -15.5354 26152.8   3407.4   7.4231 26373.8
 02 09 2016  16 28  -15.5347 26152.1   3407.0   7.4225 26373.0
 02 09 2016  16 29  -15.5346 26151.0   3406.2   7.4211 26371.9
 02 09 2016  16 30  -15.5341 26149.8   3405.2   7.4192 26370.6
 02 09 2016  16 31  -15.5331 26149.1   3406.0   7.4213 26369.9
 02 09 2016  16 32  -15.5324 26148.7   3406.8   7.4230 26369.7
 02 09 2016  16 33  -15.5316 26148.4   3407.1   7.4237 26369.4
 02 09 2016  16 34  -15.5311 26147.6   3407.2   7.4242 26368.6
 02 09 2016  16 35  -15.5302 26146.4   3408.4   7.4272 26367.7
 02 09 2016  16 36  -15.5305 26145.9   3408.2   7.4269 26367.1
 02 09 2016  16 37  -15.5303 26145.2   3409.3   7.4293 26366.5
 02 09 2016  16 38  -15.5299 26144.8   3409.8   7.4306 26366.2
 02 09 2016  16 39  -15.5297 26145.3   3411.0   7.4330 26366.9
 02 09 2016  16 40  -15.5295 26146.5   3412.0   7.4348 26368.2
 02 09 2016  16 41  -15.5297 26147.4   3412.6   7.4358 26369.1
 02 09 2016  16 42  -15.5298 26148.4   3412.3   7.4350 26370.1
 02 09 2016  16 43  -15.5299 26149.4   3412.1   7.4342 26371.1
 02 09 2016  16 44  -15.5298 26150.8   3412.0   7.4336 26372.5
 02 09 2016  16 45  -15.5298 26151.4   3410.9   7.4311 26372.9
 02 09 2016  16 46  -15.5286 26152.4   3410.0   7.4289 26373.8
 02 09 2016  16 47  -15.5288 26154.2   3409.6   7.4274 26375.5
 02 09 2016  16 48  -15.5296 26155.2   3408.2   7.4241 26376.3
 02 09 2016  16 49  -15.5307 26155.2   3406.7   7.4210 26376.2
 02 09 2016  16 50  -15.5304 26155.2   3406.0   7.4194 26376.1
 02 09 2016  16 51  -15.5315 26154.7   3404.6   7.4166 26375.3
 02 09 2016  16 52  -15.5330 26153.5   3402.8   7.4130 26374.0
 02 09 2016  16 53  -15.5334 26151.6   3401.2   7.4101 26371.8
 02 09 2016  16 54  -15.5338 26150.8   3401.4   7.4109 26371.1
 02 09 2016  16 55  -15.5340 26150.9   3401.5   7.4109 26371.2
 02 09 2016  16 56  -15.5347 26150.8   3401.7   7.4115 26371.1
 02 09 2016  16 57  -15.5345 26149.8   3401.8   7.4119 26370.1
 02 09 2016  16 58  -15.5339 26148.0   3401.4   7.4116 26368.3
 02 09 2016  16 59  -15.5334 26145.7   3401.7   7.4129 26366.1
 02 09 2016  17 00  -15.5323 26144.3   3402.5   7.4150 26364.8
 02 09 2016  17 01  -15.5316 26142.8   3403.1   7.4166 26363.4
 02 09 2016  17 02  -15.5313 26141.7   3403.4   7.4177 26362.3
 02 09 2016  17 03  -15.5304 26140.3   3404.8   7.4211 26361.2
 02 09 2016  17 04  -15.5297 26138.3   3405.4   7.4230 26359.2
 02 09 2016  17 05  -15.5278 26136.5   3406.1   7.4250 26357.5
 02 09 2016  17 06  -15.5260 26135.4   3407.9   7.4291 26356.7
 02 09 2016  17 07  -15.5253 26134.6   3408.7   7.4310 26355.9
 02 09 2016  17 08  -15.5243 26133.7   3409.9   7.4339 26355.2
 02 09 2016  17 09  -15.5238 26132.2   3410.4   7.4355 26353.8
 02 09 2016  17 10  -15.5231 26130.0   3411.4   7.4382 26351.8
 02 09 2016  17 11  -15.5221 26128.5   3412.2   7.4404 26350.3
 02 09 2016  17 12  -15.5219 26127.5   3413.4   7.4431 26349.5
 02 09 2016  17 13  -15.5214 26127.8   3414.5   7.4455 26350.0
 02 09 2016  17 14  -15.5216 26128.1   3415.4   7.4474 26350.4
 02 09 2016  17 15  -15.5209 26128.3   3416.4   7.4495 26350.7
 02 09 2016  17 16  -15.5203 26127.7   3416.6   7.4500 26350.1
 02 09 2016  17 17  -15.5201 26127.4   3417.3   7.4516 26350.0
 02 09 2016  17 18  -15.5209 26127.5   3417.0   7.4510 26350.0
 02 09 2016  17 19  -15.5205 26127.7   3417.5   7.4520 26350.3
 02 09 2016  17 20  -15.5209 26127.2   3417.7   7.4526 26349.8
 02 09 2016  17 21  -15.5208 26126.9   3417.6   7.4525 26349.4
 02 09 2016  17 22  -15.5207 26127.0   3418.1   7.4535 26349.7
 02 09 2016  17 23  -15.5199 26126.4   3418.6   7.4548 26349.1
 02 09 2016  17 24  -15.5196 26126.1   3419.4   7.4564 26348.9
 02 09 2016  17 25  -15.5204 26125.5   3419.6   7.4572 26348.3
 02 09 2016  17 26  -15.5215 26123.8   3419.4   7.4573 26346.7
 02 09 2016  17 27  -15.5219 26122.5   3419.7   7.4581 26345.4
 02 09 2016  17 28  -15.5225 26122.4   3419.7   7.4582 26345.3
 02 09 2016  17 29  -15.5226 26121.4   3421.6   7.4625 26344.6
 02 09 2016  17 30  -15.5232 26120.1   3421.8   7.4634 26343.3
 02 09 2016  17 31  -15.5240 26120.0   3423.4   7.4669 26343.4
 02 09 2016  17 32  -15.5242 26119.6   3424.1   7.4685 26343.1
 02 09 2016  17 33  -15.5239 26119.9   3425.3   7.4710 26343.5
 02 09 2016  17 34  -15.5245 26120.9   3427.0   7.4744 26344.7
 02 09 2016  17 35  -15.5253 26121.7   3428.2   7.4767 26345.7
 02 09 2016  17 36  -15.5260 26121.0   3427.8   7.4761 26344.9
 02 09 2016  17 37  -15.5270 26120.5   3427.5   7.4757 26344.4
 02 09 2016  17 38  -15.5268 26119.6   3429.1   7.4792 26343.7
 02 09 2016  17 39  -15.5263 26119.6   3429.0   7.4791 26343.7
 02 09 2016  17 40  -15.5272 26119.7   3429.8   7.4808 26343.9
 02 09 2016  17 41  -15.5270 26119.8   3430.4   7.4819 26344.1
 02 09 2016  17 42  -15.5276 26119.8   3430.6   7.4825 26344.2
 02 09 2016  17 43  -15.5277 26120.2   3430.9   7.4830 26344.6
 02 09 2016  17 44  -15.5274 26120.6   3432.2   7.4857 26345.1
 02 09 2016  17 45  -15.5272 26121.0   3431.8   7.4847 26345.5
 02 09 2016  17 46  -15.5270 26120.9   3431.8   7.4848 26345.3
 02 09 2016  17 47  -15.5275 26120.5   3431.8   7.4848 26345.0
 02 09 2016  17 48  -15.5271 26120.6   3431.1   7.4834 26345.0
 02 09 2016  17 49  -15.5268 26120.7   3432.4   7.4861 26345.3
 02 09 2016  17 50  -15.5262 26121.2   3432.6   7.4863 26345.8
 02 09 2016  17 51  -15.5263 26122.0   3433.0   7.4871 26346.6
 02 09 2016  17 52  -15.5263 26122.6   3433.6   7.4882 26347.3
 02 09 2016  17 53  -15.5264 26123.2   3432.6   7.4859 26347.8
 02 09 2016  17 54  -15.5260 26123.2   3432.0   7.4844 26347.6
 02 09 2016  17 55  -15.5250 26123.5   3433.0   7.4866 26348.1
 02 09 2016  17 56  -15.5250 26124.4   3432.2   7.4845 26348.9
 02 09 2016  17 57  -15.5249 26125.1   3432.7   7.4854 26349.7
 02 09 2016  17 58  -15.5242 26125.9   3432.7   7.4854 26350.4
 02 09 2016  17 59  -15.5240 26125.8   3432.3   7.4844 26350.3
 02 09 2016  18 00  -15.5242 26125.8   3432.2   7.4843 26350.2
 02 09 2016  18 01  -15.5236 26126.4   3432.6   7.4848 26350.9
 02 09 2016  18 02  -15.5234 26127.3   3433.1   7.4856 26351.9
 02 09 2016  18 03  -15.5234 26127.7   3431.6   7.4824 26352.1
 02 09 2016  18 04  -15.5233 26126.7   3431.2   7.4818 26351.0
 02 09 2016  18 05  -15.5221 26126.7   3431.4   7.4823 26351.0
 02 09 2016  18 06  -15.5215 26126.7   3431.4   7.4822 26351.0
 02 09 2016  18 07  -15.5209 26126.8   3431.3   7.4819 26351.2
 02 09 2016  18 08  -15.5207 26127.3   3431.6   7.4825 26351.7
 02 09 2016  18 09  -15.5195 26127.7   3432.0   7.4832 26352.2
 02 09 2016  18 10  -15.5193 26127.7   3431.7   7.4825 26352.1
 02 09 2016  18 11  -15.5189 26127.6   3431.2   7.4815 26351.9
 02 09 2016  18 12  -15.5182 26128.0   3430.7   7.4804 26352.2
 02 09 2016  18 13  -15.5169 26128.4   3431.4   7.4817 26352.7
 02 09 2016  18 14  -15.5166 26128.1   3431.3   7.4816 26352.4
 02 09 2016  18 15  -15.5164 26128.0   3431.1   7.4811 26352.4
 02 09 2016  18 16  -15.5161 26128.8   3431.4   7.4817 26353.2
 02 09 2016  18 17  -15.5156 26128.7   3430.8   7.4803 26352.9
 02 09 2016  18 18  -15.5150 26128.6   3430.3   7.4794 26352.8
 02 09 2016  18 19  -15.5147 26128.4   3430.4   7.4795 26352.6
 02 09 2016  18 20  -15.5136 26128.1   3430.8   7.4804 26352.3
 02 09 2016  18 21  -15.5137 26127.6   3430.1   7.4792 26351.8
 02 09 2016  18 22  -15.5135 26127.2   3431.3   7.4818 26351.6
 02 09 2016  18 23  -15.5142 26127.1   3430.9   7.4810 26351.4
 02 09 2016  18 24  -15.5139 26127.5   3430.8   7.4806 26351.8
 02 09 2016  18 25  -15.5138 26127.3   3431.4   7.4821 26351.7
 02 09 2016  18 26  -15.5134 26126.8   3431.2   7.4817 26351.1
 02 09 2016  18 27  -15.5129 26126.9   3430.7   7.4807 26351.2
 02 09 2016  18 28  -15.5121 26127.1   3431.0   7.4812 26351.4
 02 09 2016  18 29  -15.5106 26128.1   3432.4   7.4840 26352.6
 02 09 2016  18 30  -15.5111 26129.1   3433.1   7.4853 26353.7
 02 09 2016  18 31  -15.5110 26129.9   3433.1   7.4850 26354.4
 02 09 2016  18 32  -15.5121 26130.1   3432.4   7.4835 26354.6
 02 09 2016  18 33  -15.5122 26130.3   3432.4   7.4834 26354.7
 02 09 2016  18 34  -15.5123 26129.9   3432.3   7.4832 26354.4
 02 09 2016  18 35  -15.5119 26129.4   3431.1   7.4809 26353.7
 02 09 2016  18 36  -15.5105 26129.0   3431.0   7.4807 26353.3
 02 09 2016  18 37  -15.5097 26129.2   3430.6   7.4798 26353.4
 02 09 2016  18 38  -15.5088 26129.8   3432.4   7.4835 26354.3
 02 09 2016  18 39  -15.5084 26130.1   3432.1   7.4828 26354.5
 02 09 2016  18 40  -15.5081 26130.0   3431.5   7.4815 26354.3
 02 09 2016  18 41  -15.5075 26130.3   3431.5   7.4815 26354.6
 02 09 2016  18 42  -15.5072 26130.9   3431.4   7.4811 26355.2
 02 09 2016  18 43  -15.5070 26131.2   3431.8   7.4818 26355.6
 02 09 2016  18 44  -15.5073 26131.0   3432.4   7.4832 26355.4
 02 09 2016  18 45  -15.5075 26130.5   3431.8   7.4820 26354.9
 02 09 2016  18 46  -15.5077 26129.7   3431.0   7.4804 26354.0
 02 09 2016  18 47  -15.5071 26128.8   3431.2   7.4813 26353.1
 02 09 2016  18 48  -15.5063 26128.3   3431.4   7.4819 26352.6
 02 09 2016  18 49  -15.5054 26128.2   3432.5   7.4842 26352.7
 02 09 2016  18 50  -15.5054 26128.3   3431.9   7.4828 26352.7
 02 09 2016  18 51  -15.5054 26128.5   3432.8   7.4846 26353.1
 02 09 2016  18 52  -15.5052 26128.1   3432.8   7.4848 26352.6
 02 09 2016  18 53  -15.5049 26127.4   3432.6   7.4845 26351.9
 02 09 2016  18 54  -15.5053 26126.5   3432.2   7.4840 26350.9
 02 09 2016  18 55  -15.5050 26125.5   3432.7   7.4854 26350.0
 02 09 2016  18 56  -15.5047 26124.0   3432.4   7.4852 26348.6
 02 09 2016  18 57  -15.5047 26123.5   3432.5   7.4854 26348.0
 02 09 2016  18 58  -15.5050 26123.3   3432.7   7.4861 26347.9
 02 09 2016  18 59  -15.5050 26123.2   3433.9   7.4886 26347.9
 02 09 2016  19 00  -15.5052 26123.2   3433.6   7.4881 26347.9
 02 09 2016  19 01  -15.5050 26123.4   3433.7   7.4882 26348.1
 02 09 2016  19 02  -15.5046 26124.0   3434.8   7.4904 26348.8
 02 09 2016  19 03  -15.5048 26124.5   3435.5   7.4916 26349.5
 02 09 2016  19 04  -15.5046 26125.5   3435.4   7.4912 26350.4
 02 09 2016  19 05  -15.5051 26126.0   3434.8   7.4898 26350.8
 02 09 2016  19 06  -15.5044 26126.5   3434.8   7.4896 26351.3
 02 09 2016  19 07  -15.5044 26126.6   3434.9   7.4898 26351.5
 02 09 2016  19 08  -15.5049 26127.5   3434.7   7.4891 26352.3
 02 09 2016  19 09  -15.5057 26128.2   3434.9   7.4894 26353.0
 02 09 2016  19 10  -15.5047 26128.6   3434.9   7.4892 26353.4
 02 09 2016  19 11  -15.5043 26128.4   3434.3   7.4879 26353.1
 02 09 2016  19 12  -15.5036 26127.9   3434.2   7.4879 26352.6
 02 09 2016  19 13  -15.5031 26128.1   3433.9   7.4872 26352.8
 02 09 2016  19 14  -15.5031 26128.8   3433.3   7.4856 26353.4
 02 09 2016  19 15  -15.5024 26128.5   3433.1   7.4853 26353.1
 02 09 2016  19 16  -15.5022 26127.7   3433.0   7.4855 26352.3
 02 09 2016  19 17  -15.5021 26126.7   3432.0   7.4835 26351.1
 02 09 2016  19 18  -15.5016 26125.9   3432.5   7.4848 26350.4
 02 09 2016  19 19  -15.5014 26125.9   3432.1   7.4840 26350.4
 02 09 2016  19 20  -15.5016 26125.8   3432.3   7.4845 26350.3
 02 09 2016  19 21  -15.5023 26126.0   3432.2   7.4842 26350.5
 02 09 2016  19 22  -15.5017 26126.5   3432.7   7.4851 26351.0
 02 09 2016  19 23  -15.5012 26126.6   3433.1   7.4858 26351.2
 02 09 2016  19 24  -15.5015 26127.6   3433.7   7.4870 26352.3
 02 09 2016  19 25  -15.5018 26129.0   3434.3   7.4879 26353.7
 02 09 2016  19 26  -15.5026 26128.6   3433.9   7.4871 26353.3
 02 09 2016  19 27  -15.5033 26127.3   3432.8   7.4852 26351.9
 02 09 2016  19 28  -15.5029 26126.8   3432.8   7.4852 26351.3
 02 09 2016  19 29  -15.5034 26126.5   3433.2   7.4861 26351.1
 02 09 2016  19 30  -15.5040 26126.9   3433.1   7.4859 26351.4
 02 09 2016  19 31  -15.5040 26127.3   3433.8   7.4871 26352.0
 02 09 2016  19 32  -15.5037 26127.5   3433.8   7.4871 26352.2
 02 09 2016  19 33  -15.5040 26128.3   3434.4   7.4883 26353.1
 02 09 2016  19 34  -15.5057 26128.7   3434.0   7.4873 26353.3
 02 09 2016  19 35  -15.5068 26129.3   3433.6   7.4862 26353.9
 02 09 2016  19 36  -15.5068 26129.6   3434.2   7.4874 26354.3
 02 09 2016  19 37  -15.5074 26129.5   3433.5   7.4860 26354.1
 02 09 2016  19 38  -15.5077 26129.0   3432.2   7.4833 26353.4
 02 09 2016  19 39  -15.5074 26129.0   3432.6   7.4842 26353.5
 02 09 2016  19 40  -15.5076 26129.4   3432.4   7.4837 26353.9
 02 09 2016  19 41  -15.5080 26129.5   3432.5   7.4838 26354.0
 02 09 2016  19 42  -15.5079 26129.9   3432.1   7.4828 26354.3
 02 09 2016  19 43  -15.5076 26130.1   3431.7   7.4820 26354.5
 02 09 2016  19 44  -15.5077 26130.2   3432.1   7.4828 26354.6
 02 09 2016  19 45  -15.5082 26129.8   3431.9   7.4824 26354.2
 02 09 2016  19 46  -15.5084 26129.2   3431.4   7.4814 26353.6
 02 09 2016  19 47  -15.5082 26128.7   3430.2   7.4791 26352.9
 02 09 2016  19 48  -15.5088 26128.5   3430.7   7.4802 26352.8
 02 09 2016  19 49  -15.5083 26129.1   3431.8   7.4823 26353.5
 02 09 2016  19 50  -15.5082 26129.9   3431.3   7.4811 26354.3
 02 09 2016  19 51  -15.5072 26130.1   3431.7   7.4820 26354.5
 02 09 2016  19 52  -15.5064 26129.5   3431.5   7.4816 26353.9
 02 09 2016  19 53  -15.5079 26129.6   3431.1   7.4807 26353.9
 02 09 2016  19 54  -15.5089 26129.6   3430.8   7.4802 26353.9
 02 09 2016  19 55  -15.5104 26131.0   3431.1   7.4804 26355.2
 02 09 2016  19 56  -15.5098 26130.9   3430.8   7.4799 26355.1
 02 09 2016  19 57  -15.5094 26131.3   3431.0   7.4800 26355.6
 02 09 2016  19 58  -15.5094 26131.3   3430.8   7.4797 26355.6
 02 09 2016  19 59  -15.5096 26131.0   3430.7   7.4795 26355.2
 02 09 2016  20 00  -15.5089 26130.4   3430.6   7.4795 26354.7
 02 09 2016  20 01  -15.5087 26130.0   3429.5   7.4773 26354.1
 02 09 2016  20 02  -15.5087 26129.1   3429.6   7.4777 26353.2
 02 09 2016  20 03  -15.5088 26128.7   3429.4   7.4775 26352.8
 02 09 2016  20 04  -15.5094 26128.1   3429.2   7.4770 26352.1
 02 09 2016  20 05  -15.5091 26127.5   3429.1   7.4771 26351.6
 02 09 2016  20 06  -15.5091 26127.4   3429.3   7.4776 26351.5
 02 09 2016  20 07  -15.5099 26127.5   3429.2   7.4772 26351.6
 02 09 2016  20 08  -15.5096 26127.5   3429.8   7.4785 26351.7
 02 09 2016  20 09  -15.5097 26127.5   3429.3   7.4775 26351.6
 02 09 2016  20 10  -15.5096 26127.5   3429.2   7.4772 26351.6
 02 09 2016  20 11  -15.5101 26127.3   3429.4   7.4777 26351.4
 02 09 2016  20 12  -15.5101 26126.9   3428.9   7.4769 26351.0
 02 09 2016  20 13  -15.5101 26126.6   3428.9   7.4768 26350.7
 02 09 2016  20 14  -15.5103 26126.6   3428.9   7.4768 26350.6
 02 09 2016  20 15  -15.5105 26126.0   3429.0   7.4773 26350.1
 02 09 2016  20 16  -15.5098 26125.5   3429.1   7.4776 26349.6
 02 09 2016  20 17  -15.5099 26124.9   3428.6   7.4767 26348.9
 02 09 2016  20 18  -15.5100 26124.3   3427.9   7.4753 26348.3
 02 09 2016  20 19  -15.5104 26124.3   3428.5   7.4766 26348.3
 02 09 2016  20 20  -15.5102 26123.8   3428.5   7.4767 26347.8
 02 09 2016  20 21  -15.5100 26123.9   3428.0   7.4756 26347.9
 02 09 2016  20 22  -15.5101 26123.9   3428.1   7.4758 26347.8
 02 09 2016  20 23  -15.5101 26123.9   3427.9   7.4754 26347.8
 02 09 2016  20 24  -15.5105 26124.3   3427.8   7.4752 26348.3
 02 09 2016  20 25  -15.5109 26124.0   3427.5   7.4746 26347.9
 02 09 2016  20 26  -15.5117 26123.0   3426.6   7.4729 26346.8
 02 09 2016  20 27  -15.5114 26122.4   3427.4   7.4749 26346.2
 02 09 2016  20 28  -15.5112 26122.2   3426.6   7.4732 26346.0
 02 09 2016  20 29  -15.5116 26122.2   3426.6   7.4732 26346.0
 02 09 2016  20 30  -15.5115 26122.1   3426.8   7.4736 26346.0
 02 09 2016  20 31  -15.5114 26122.2   3426.8   7.4736 26346.1
 02 09 2016  20 32  -15.5110 26122.1   3426.5   7.4730 26345.9
 02 09 2016  20 33  -15.5112 26122.3   3426.5   7.4729 26346.1
 02 09 2016  20 34  -15.5113 26122.5   3426.3   7.4725 26346.3
 02 09 2016  20 35  -15.5116 26121.7   3425.8   7.4716 26345.3
 02 09 2016  20 36  -15.5113 26121.6   3425.5   7.4709 26345.2
 02 09 2016  20 37  -15.5119 26121.9   3425.9   7.4717 26345.6
 02 09 2016  20 38  -15.5122 26121.7   3425.4   7.4708 26345.3
 02 09 2016  20 39  -15.5122 26121.5   3425.8   7.4717 26345.2
 02 09 2016  20 40  -15.5125 26121.5   3424.9   7.4696 26345.1
 02 09 2016  20 41  -15.5130 26121.6   3424.9   7.4696 26345.2
 02 09 2016  20 42  -15.5125 26121.4   3425.0   7.4699 26345.0
 02 09 2016  20 43  -15.5124 26121.2   3425.4   7.4708 26344.8
 02 09 2016  20 44  -15.5129 26121.2   3425.3   7.4706 26344.8
 02 09 2016  20 45  -15.5125 26121.1   3425.5   7.4710 26344.8
 02 09 2016  20 46  -15.5128 26121.1   3424.2   7.4684 26344.6
 02 09 2016  20 47  -15.5128 26121.0   3424.2   7.4684 26344.5
 02 09 2016  20 48  -15.5117 26121.1   3424.5   7.4689 26344.6
 02 09 2016  20 49  -15.5120 26121.0   3424.2   7.4684 26344.5
 02 09 2016  20 50  -15.5118 26121.4   3424.7   7.4693 26344.9
 02 09 2016  20 51  -15.5120 26121.7   3424.7   7.4691 26345.3
 02 09 2016  20 52  -15.5118 26122.0   3424.7   7.4690 26345.5
 02 09 2016  20 53  -15.5127 26121.7   3424.4   7.4685 26345.2
 02 09 2016  20 54  -15.5131 26121.2   3424.1   7.4680 26344.7
 02 09 2016  20 55  -15.5138 26120.8   3423.2   7.4663 26344.2
 02 09 2016  20 56  -15.5137 26120.5   3423.1   7.4662 26343.8
 02 09 2016  20 57  -15.5135 26120.6   3423.0   7.4659 26343.9
 02 09 2016  20 58  -15.5137 26120.0   3422.5   7.4650 26343.3
 02 09 2016  20 59  -15.5133 26119.1   3423.1   7.4665 26342.4
 02 09 2016  21 00  -15.5136 26118.9   3422.9   7.4661 26342.3
 02 09 2016  21 01  -15.5138 26119.6   3422.9   7.4659 26342.9
 02 09 2016  21 02  -15.5138 26120.2   3423.7   7.4674 26343.6
 02 09 2016  21 03  -15.5133 26120.6   3423.9   7.4677 26344.1
 02 09 2016  21 04  -15.5136 26121.1   3424.1   7.4680 26344.6
 02 09 2016  21 05  -15.5141 26121.4   3423.6   7.4669 26344.8
 02 09 2016  21 06  -15.5143 26121.4   3423.5   7.4667 26344.7
 02 09 2016  21 07  -15.5152 26121.0   3422.9   7.4656 26344.3
 02 09 2016  21 08  -15.5155 26120.9   3422.6   7.4648 26344.2
 02 09 2016  21 09  -15.5154 26120.8   3422.4   7.4644 26344.0
 02 09 2016  21 10  -15.5160 26120.3   3421.7   7.4630 26343.4
 02 09 2016  21 11  -15.5164 26119.8   3421.4   7.4625 26342.9
 02 09 2016  21 12  -15.5160 26119.7   3422.1   7.4642 26342.9
 02 09 2016  21 13  -15.5156 26120.1   3421.9   7.4637 26343.3
 02 09 2016  21 14  -15.5152 26120.1   3422.1   7.4639 26343.4
 02 09 2016  21 15  -15.5164 26119.4   3420.9   7.4617 26342.5
 02 09 2016  21 16  -15.5158 26118.8   3420.9   7.4617 26341.9
 02 09 2016  21 17  -15.5163 26118.7   3420.1   7.4602 26341.7
 02 09 2016  21 18  -15.5157 26117.9   3420.4   7.4609 26340.9
 02 09 2016  21 19  -15.5156 26116.7   3420.1   7.4607 26339.7
 02 09 2016  21 20  -15.5153 26115.8   3418.9   7.4583 26338.6
 02 09 2016  21 21  -15.5152 26114.5   3419.3   7.4597 26337.4
 02 09 2016  21 22  -15.5148 26113.4   3418.9   7.4590 26336.3
 02 09 2016  21 23  -15.5151 26112.2   3418.4   7.4582 26335.0
 02 09 2016  21 24  -15.5144 26111.9   3418.6   7.4588 26334.7
 02 09 2016  21 25  -15.5136 26111.0   3418.8   7.4596 26333.8
 02 09 2016  21 26  -15.5133 26110.5   3418.8   7.4596 26333.4
 02 09 2016  21 27  -15.5128 26110.3   3418.5   7.4591 26333.1
 02 09 2016  21 28  -15.5119 26109.8   3418.5   7.4592 26332.7
 02 09 2016  21 29  -15.5112 26109.6   3419.1   7.4605 26332.5
 02 09 2016  21 30  -15.5105 26109.2   3419.6   7.4617 26332.1
 02 09 2016  21 31  -15.5096 26108.5   3418.8   7.4601 26331.4
 02 09 2016  21 32  -15.5094 26108.4   3419.5   7.4617 26331.3
 02 09 2016  21 33  -15.5082 26109.1   3419.6   7.4617 26332.1
 02 09 2016  21 34  -15.5078 26110.2   3420.7   7.4638 26333.4
 02 09 2016  21 35  -15.5077 26112.0   3421.9   7.4658 26335.3
 02 09 2016  21 36  -15.5080 26113.2   3421.5   7.4648 26336.4
 02 09 2016  21 37  -15.5078 26114.5   3422.2   7.4659 26337.8
 02 09 2016  21 38  -15.5071 26116.5   3422.8   7.4666 26339.8
 02 09 2016  21 39  -15.5069 26117.3   3423.0   7.4668 26340.6
 02 09 2016  21 40  -15.5068 26117.6   3422.2   7.4649 26340.8
 02 09 2016  21 41  -15.5071 26119.3   3422.4   7.4649 26342.6
 02 09 2016  21 42  -15.5080 26120.6   3423.3   7.4665 26343.9
 02 09 2016  21 43  -15.5093 26121.6   3422.2   7.4638 26344.9
 02 09 2016  21 44  -15.5101 26122.4   3423.1   7.4655 26345.8
 02 09 2016  21 45  -15.5106 26123.5   3422.8   7.4646 26346.7
 02 09 2016  21 46  -15.5116 26124.2   3422.4   7.4636 26347.4
 02 09 2016  21 47  -15.5120 26125.0   3422.5   7.4635 26348.3
 02 09 2016  21 48  -15.5120 26126.2   3423.1   7.4644 26349.4
 02 09 2016  21 49  -15.5117 26126.8   3423.1   7.4644 26350.1
 02 09 2016  21 50  -15.5116 26127.6   3423.2   7.4642 26350.9
 02 09 2016  21 51  -15.5109 26127.9   3422.9   7.4636 26351.2
 02 09 2016  21 52  -15.5106 26128.2   3423.0   7.4637 26351.4
 02 09 2016  21 53  -15.5110 26128.0   3422.8   7.4633 26351.3
 02 09 2016  21 54  -15.5113 26128.6   3422.5   7.4624 26351.8
 02 09 2016  21 55  -15.5108 26128.9   3422.7   7.4629 26352.1
 02 09 2016  21 56  -15.5113 26129.1   3423.3   7.4641 26352.4
 02 09 2016  21 57  -15.5124 26130.0   3423.0   7.4633 26353.2
 02 09 2016  21 58  -15.5131 26130.1   3423.1   7.4634 26353.4
 02 09 2016  21 59  -15.5142 26129.6   3422.5   7.4623 26352.7
 02 09 2016  22 00  -15.5150 26128.8   3422.2   7.4619 26352.0
 02 09 2016  22 01  -15.5147 26127.9   3421.5   7.4606 26351.0
 02 09 2016  22 02  -15.5153 26126.7   3420.7   7.4591 26349.6
 02 09 2016  22 03  -15.5157 26125.6   3420.8   7.4596 26348.6
 02 09 2016  22 04  -15.5159 26124.1   3420.2   7.4588 26347.1
 02 09 2016  22 05  -15.5159 26122.6   3420.6   7.4602 26345.6
 02 09 2016  22 06  -15.5164 26121.3   3419.5   7.4580 26344.1
 02 09 2016  22 07  -15.5171 26119.7   3418.6   7.4567 26342.5
 02 09 2016  22 08  -15.5172 26117.6   3418.5   7.4571 26340.4
 02 09 2016  22 09  -15.5171 26116.0   3418.3   7.4569 26338.8
 02 09 2016  22 10  -15.5165 26114.9   3418.2   7.4572 26337.7
 02 09 2016  22 11  -15.5165 26113.6   3418.2   7.4575 26336.4
 02 09 2016  22 12  -15.5164 26112.5   3417.5   7.4563 26335.2
 02 09 2016  22 13  -15.5169 26110.7   3417.9   7.4577 26333.4
 02 09 2016  22 14  -15.5167 26109.1   3417.9   7.4581 26331.9
 02 09 2016  22 15  -15.5175 26107.3   3416.7   7.4560 26330.0
 02 09 2016  22 16  -15.5171 26106.2   3417.2   7.4574 26328.9
 02 09 2016  22 17  -15.5176 26104.7   3417.0   7.4574 26327.4
 02 09 2016  22 18  -15.5180 26104.4   3417.7   7.4590 26327.2
 02 09 2016  22 19  -15.5186 26103.3   3417.5   7.4590 26326.0
 02 09 2016  22 20  -15.5192 26102.1   3417.1   7.4584 26324.8
 02 09 2016  22 21  -15.5195 26101.6   3418.0   7.4604 26324.4
 02 09 2016  22 22  -15.5201 26101.6   3418.1   7.4607 26324.5
 02 09 2016  22 23  -15.5211 26101.5   3418.4   7.4613 26324.4
 02 09 2016  22 24  -15.5218 26101.0   3419.7   7.4643 26324.1
 02 09 2016  22 25  -15.5226 26100.6   3419.9   7.4648 26323.7
 02 09 2016  22 26  -15.5230 26100.7   3420.0   7.4649 26323.8
 02 09 2016  22 27  -15.5229 26100.5   3420.0   7.4650 26323.6
 02 09 2016  22 28  -15.5242 26100.0   3419.1   7.4632 26323.0
 02 09 2016  22 29  -15.5242 26100.1   3420.2   7.4657 26323.3
 02 09 2016  22 30  -15.5249 26100.5   3419.7   7.4644 26323.6
 02 09 2016  22 31  -15.5249 26100.6   3420.7   7.4664 26323.8
 02 09 2016  22 32  -15.5253 26100.3   3421.3   7.4678 26323.6
 02 09 2016  22 33  -15.5254 26100.0   3420.4   7.4660 26323.1
 02 09 2016  22 34  -15.5258 26099.7   3421.0   7.4674 26322.9
 02 09 2016  22 35  -15.5264 26099.6   3420.8   7.4670 26322.9
 02 09 2016  22 36  -15.5267 26099.7   3421.2   7.4678 26323.0
 02 09 2016  22 37  -15.5270 26100.0   3421.2   7.4678 26323.2
 02 09 2016  22 38  -15.5269 26100.5   3421.6   7.4686 26323.8
 02 09 2016  22 39  -15.5272 26101.1   3421.8   7.4688 26324.5
 02 09 2016  22 40  -15.5265 26102.1   3422.6   7.4703 26325.5
 02 09 2016  22 41  -15.5265 26102.7   3423.1   7.4712 26326.2
 02 09 2016  22 42  -15.5266 26103.4   3423.2   7.4712 26326.9
 02 09 2016  22 43  -15.5270 26103.7   3423.3   7.4712 26327.2
 02 09 2016  22 44  -15.5271 26103.9   3423.2   7.4710 26327.4
 02 09 2016  22 45  -15.5275 26104.4   3423.1   7.4707 26327.9
 02 09 2016  22 46  -15.5274 26105.4   3424.0   7.4723 26329.0
 02 09 2016  22 47  -15.5273 26106.2   3423.9   7.4719 26329.7
 02 09 2016  22 48  -15.5269 26106.6   3424.6   7.4732 26330.3
 02 09 2016  22 49  -15.5272 26106.8   3423.5   7.4708 26330.4
 02 09 2016  22 50  -15.5274 26106.8   3423.1   7.4700 26330.2
 02 09 2016  22 51  -15.5271 26106.4   3423.1   7.4700 26329.8
 02 09 2016  22 52  -15.5275 26105.8   3422.5   7.4690 26329.2
 02 09 2016  22 53  -15.5265 26105.4   3422.9   7.4698 26328.9
 02 09 2016  22 54  -15.5262 26104.8   3422.7   7.4697 26328.2
 02 09 2016  22 55  -15.5260 26104.2   3423.2   7.4709 26327.7
 02 09 2016  22 56  -15.5257 26103.7   3423.6   7.4719 26327.3
 02 09 2016  22 57  -15.5248 26103.9   3422.4   7.4693 26327.3
 02 09 2016  22 58  -15.5242 26103.8   3423.4   7.4715 26327.3
 02 09 2016  22 59  -15.5244 26103.6   3423.3   7.4712 26327.1
 02 09 2016  23 00  -15.5237 26103.8   3423.5   7.4717 26327.3
 02 09 2016  23 01  -15.5229 26104.2   3423.1   7.4707 26327.7
 02 09 2016  23 02  -15.5232 26104.4   3422.8   7.4700 26327.8
 02 09 2016  23 03  -15.5227 26104.4   3424.4   7.4735 26328.0
 02 09 2016  23 04  -15.5231 26104.4   3423.6   7.4716 26328.0
 02 09 2016  23 05  -15.5237 26104.3   3423.7   7.4719 26327.9
 02 09 2016  23 06  -15.5237 26104.3   3424.0   7.4725 26327.9
 02 09 2016  23 07  -15.5233 26104.3   3423.8   7.4722 26327.9
 02 09 2016  23 08  -15.5235 26104.6   3424.1   7.4727 26328.2
 02 09 2016  23 09  -15.5242 26104.4   3423.2   7.4708 26327.8
 02 09 2016  23 10  -15.5240 26104.3   3423.7   7.4720 26327.9
 02 09 2016  23 11  -15.5239 26103.8   3423.7   7.4722 26327.3
 02 09 2016  23 12  -15.5244 26103.5   3422.6   7.4697 26327.0
 02 09 2016  23 13  -15.5236 26103.3   3423.4   7.4716 26326.9
 02 09 2016  23 14  -15.5230 26103.0   3423.1   7.4711 26326.5
 02 09 2016  23 15  -15.5229 26102.5   3423.1   7.4711 26326.0
 02 09 2016  23 16  -15.5236 26101.9   3422.8   7.4706 26325.3
 02 09 2016  23 17  -15.5227 26101.5   3422.4   7.4700 26324.9
 02 09 2016  23 18  -15.5223 26101.1   3423.1   7.4716 26324.6
 02 09 2016  23 19  -15.5223 26100.7   3422.7   7.4708 26324.2
 02 09 2016  23 20  -15.5219 26100.4   3422.9   7.4714 26323.9
 02 09 2016  23 21  -15.5214 26100.1   3422.2   7.4698 26323.5
 02 09 2016  23 22  -15.5215 26099.7   3423.1   7.4720 26323.2
 02 09 2016  23 23  -15.5214 26099.8   3422.2   7.4700 26323.2
 02 09 2016  23 24  -15.5213 26099.4   3423.0   7.4719 26322.9
 02 09 2016  23 25  -15.5221 26099.2   3421.9   7.4695 26322.6
 02 09 2016  23 26  -15.5214 26099.0   3422.8   7.4715 26322.5
 02 09 2016  23 27  -15.5216 26098.6   3422.3   7.4705 26322.1
 02 09 2016  23 28  -15.5221 26097.9   3422.4   7.4709 26321.4
 02 09 2016  23 29  -15.5222 26097.6   3422.4   7.4710 26321.0
 02 09 2016  23 30  -15.5220 26097.7   3422.8   7.4719 26321.2
 02 09 2016  23 31  -15.5219 26097.6   3422.8   7.4719 26321.1
 02 09 2016  23 32  -15.5220 26097.6   3423.2   7.4727 26321.1
 02 09 2016  23 33  -15.5219 26097.8   3423.3   7.4730 26321.4
 02 09 2016  23 34  -15.5221 26097.9   3423.4   7.4732 26321.5
 02 09 2016  23 35  -15.5220 26098.1   3424.0   7.4744 26321.7
 02 09 2016  23 36  -15.5222 26097.9   3423.6   7.4735 26321.5
 02 09 2016  23 37  -15.5226 26097.7   3423.5   7.4735 26321.3
 02 09 2016  23 38  -15.5224 26097.8   3423.6   7.4735 26321.4
 02 09 2016  23 39  -15.5219 26098.4   3424.0   7.4743 26322.1
 02 09 2016  23 40  -15.5205 26099.5   3425.0   7.4762 26323.2
 02 09 2016  23 41  -15.5202 26099.7   3424.9   7.4759 26323.4
 02 09 2016  23 42  -15.5204 26099.4   3425.0   7.4761 26323.2
 02 09 2016  23 43  -15.5215 26099.3   3423.9   7.4739 26322.9
 02 09 2016  23 44  -15.5218 26099.5   3423.9   7.4737 26323.1
 02 09 2016  23 45  -15.5222 26099.8   3424.3   7.4745 26323.4
 02 09 2016  23 46  -15.5224 26100.7   3424.2   7.4740 26324.4
 02 09 2016  23 47  -15.5222 26101.4   3426.1   7.4780 26325.3
 02 09 2016  23 48  -15.5218 26102.4   3425.6   7.4765 26326.2
 02 09 2016  23 49  -15.5226 26102.4   3425.0   7.4753 26326.2
 02 09 2016  23 50  -15.5230 26102.1   3424.8   7.4750 26325.8
 02 09 2016  23 51  -15.5225 26101.9   3424.5   7.4743 26325.6
 02 09 2016  23 52  -15.5225 26101.8   3423.8   7.4729 26325.4
 02 09 2016  23 53  -15.5221 26101.8   3424.3   7.4739 26325.5
 02 09 2016  23 54  -15.5220 26102.3   3424.9   7.4751 26326.0
 02 09 2016  23 55  -15.5214 26102.9   3424.6   7.4744 26326.6
 02 09 2016  23 56  -15.5214 26103.0   3425.5   7.4761 26326.8
 02 09 2016  23 57  -15.5204 26103.4   3425.8   7.4767 26327.2
 02 09 2016  23 58  -15.5204 26104.6   3425.3   7.4753 26328.4
 02 09 2016  23 59  -15.5203 26105.3   3425.5   7.4756 26329.1
