Manaus - AM                    UNIVAP-03  <286> 1 Min. Reported data

 DD MM YYYY  HH MM   D(Deg)  H(nT)   Z(nT)   I(Deg)   F(nT)

 12 10 2016  00 00  -15.5051 26138.0   3405.0   7.4221 26358.8
 12 10 2016  00 01  -15.5052 26137.9   3405.5   7.4233 26358.8
 12 10 2016  00 02  -15.5054 26138.0   3405.1   7.4223 26358.8
 12 10 2016  00 03  -15.5050 26138.0   3405.0   7.4221 26358.9
 12 10 2016  00 04  -15.5050 26138.3   3404.7   7.4214 26359.1
 12 10 2016  00 05  -15.5046 26138.2   3404.8   7.4216 26359.0
 12 10 2016  00 06  -15.5043 26138.2   3405.0   7.4220 26359.0
 12 10 2016  00 07  -15.5043 26138.2   3405.3   7.4228 26359.0
 12 10 2016  00 08  -15.5036 26138.3   3405.3   7.4227 26359.2
 12 10 2016  00 09  -15.5036 26138.4   3405.3   7.4227 26359.3
 12 10 2016  00 10  -15.5041 26138.0   3404.9   7.4220 26358.9
 12 10 2016  00 11  -15.5042 26137.7   3405.8   7.4240 26358.6
 12 10 2016  00 12  -15.5035 26138.2   3404.6   7.4212 26359.0
 12 10 2016  00 13  -15.5040 26137.8   3405.4   7.4231 26358.7
 12 10 2016  00 14  -15.5053 26137.1   3404.8   7.4220 26357.9
 12 10 2016  00 15  -15.5039 26137.6   3405.0   7.4223 26358.5
 12 10 2016  00 16  -15.5047 26136.9   3405.2   7.4228 26357.8
 12 10 2016  00 17  -15.5045 26137.0   3405.3   7.4231 26357.9
 12 10 2016  00 18  -15.5049 26136.9   3405.2   7.4228 26357.8
 12 10 2016  00 19  -15.5047 26136.6   3405.7   7.4241 26357.5
 12 10 2016  00 20  -15.5043 26136.7   3405.0   7.4224 26357.6
 12 10 2016  00 21  -15.5035 26136.9   3405.6   7.4237 26357.9
 12 10 2016  00 22  -15.5044 26136.3   3405.5   7.4237 26357.2
 12 10 2016  00 23  -15.5041 26136.8   3405.5   7.4236 26357.8
 12 10 2016  00 24  -15.5047 26136.6   3405.3   7.4231 26357.5
 12 10 2016  00 25  -15.5040 26137.0   3405.2   7.4229 26357.9
 12 10 2016  00 26  -15.5046 26136.8   3405.4   7.4234 26357.8
 12 10 2016  00 27  -15.5045 26137.1   3405.9   7.4243 26358.1
 12 10 2016  00 28  -15.5030 26137.5   3404.7   7.4216 26358.4
 12 10 2016  00 29  -15.5040 26137.9   3405.1   7.4223 26358.7
 12 10 2016  00 30  -15.5030 26137.6   3405.8   7.4240 26358.6
 12 10 2016  00 31  -15.5037 26137.8   3405.9   7.4242 26358.7
 12 10 2016  00 32  -15.5037 26138.2   3404.5   7.4210 26359.0
 12 10 2016  00 33  -15.5037 26137.9   3405.0   7.4222 26358.7
 12 10 2016  00 34  -15.5023 26138.3   3404.4   7.4207 26359.1
 12 10 2016  00 35  -15.5022 26138.2   3404.3   7.4206 26359.0
 12 10 2016  00 36  -15.5045 26137.8   3403.7   7.4194 26358.5
 12 10 2016  00 37  -15.5027 26138.0   3404.9   7.4218 26358.8
 12 10 2016  00 38  -15.5035 26138.1   3403.6   7.4191 26358.7
 12 10 2016  00 39  -15.5043 26137.6   3404.8   7.4218 26358.4
 12 10 2016  00 40  -15.5031 26138.2   3403.8   7.4194 26358.9
 12 10 2016  00 41  -15.5033 26138.0   3404.2   7.4204 26358.7
 12 10 2016  00 42  -15.5023 26137.8   3406.4   7.4251 26358.9
 12 10 2016  00 43  -15.5027 26137.7   3405.4   7.4230 26358.6
 12 10 2016  00 44  -15.5029 26137.3   3403.4   7.4189 26358.0
 12 10 2016  00 45  -15.5037 26136.7   3404.6   7.4216 26357.5
 12 10 2016  00 46  -15.5038 26136.9   3403.4   7.4191 26357.6
 12 10 2016  00 47  -15.5042 26136.7   3404.4   7.4212 26357.5
 12 10 2016  00 48  -15.5038 26137.0   3403.6   7.4193 26357.7
 12 10 2016  00 49  -15.5036 26136.9   3405.4   7.4234 26357.8
 12 10 2016  00 50  -15.5058 26136.3   3404.4   7.4214 26357.0
 12 10 2016  00 51  -15.5059 26136.7   3402.6   7.4174 26357.2
 12 10 2016  00 52  -15.5061 26136.5   3403.3   7.4190 26357.2
 12 10 2016  00 53  -15.5053 26136.3   3405.3   7.4232 26357.2
 12 10 2016  00 54  -15.5056 26136.3   3403.6   7.4195 26357.0
 12 10 2016  00 55  -15.5046 26136.0   3405.8   7.4244 26356.9
 12 10 2016  00 56  -15.5049 26136.1   3404.3   7.4211 26356.8
 12 10 2016  00 57  -15.5042 26136.3   3403.9   7.4202 26357.1
 12 10 2016  00 58  -15.5043 26136.2   3404.4   7.4213 26357.0
 12 10 2016  00 59  -15.5050 26136.1   3403.1   7.4186 26356.7
 12 10 2016  01 00  -15.5049 26135.8   3405.2   7.4232 26356.7
 12 10 2016  01 01  -15.5053 26136.3   3404.4   7.4213 26357.0
 12 10 2016  01 02  -15.5039 26137.1   3404.9   7.4222 26357.9
 12 10 2016  01 03  -15.5032 26137.4   3403.6   7.4193 26358.1
 12 10 2016  01 04  -15.5039 26137.1   3404.0   7.4203 26357.9
 12 10 2016  01 05  -15.5042 26136.9   3405.3   7.4231 26357.8
 12 10 2016  01 06  -15.5035 26137.3   3404.2   7.4206 26358.0
 12 10 2016  01 07  -15.5018 26137.7   3406.0   7.4243 26358.7
 12 10 2016  01 08  -15.5026 26137.7   3405.0   7.4223 26358.6
 12 10 2016  01 09  -15.5023 26137.5   3405.3   7.4229 26358.4
 12 10 2016  01 10  -15.5025 26137.9   3404.4   7.4209 26358.7
 12 10 2016  01 11  -15.5022 26137.8   3406.1   7.4246 26358.8
 12 10 2016  01 12  -15.5016 26138.0   3405.4   7.4231 26358.9
 12 10 2016  01 13  -15.5017 26138.0   3404.3   7.4205 26358.7
 12 10 2016  01 14  -15.5014 26137.9   3405.6   7.4234 26358.9
 12 10 2016  01 15  -15.5008 26138.1   3405.9   7.4240 26359.1
 12 10 2016  01 16  -15.5006 26138.2   3405.2   7.4225 26359.1
 12 10 2016  01 17  -15.4997 26138.2   3405.3   7.4227 26359.1
 12 10 2016  01 18  -15.5001 26138.3   3404.9   7.4218 26359.1
 12 10 2016  01 19  -15.5010 26138.1   3404.3   7.4207 26358.8
 12 10 2016  01 20  -15.4996 26138.3   3404.8   7.4215 26359.1
 12 10 2016  01 21  -15.4999 26137.9   3405.3   7.4227 26358.8
 12 10 2016  01 22  -15.4999 26137.7   3405.3   7.4228 26358.6
 12 10 2016  01 23  -15.4998 26137.7   3405.0   7.4221 26358.6
 12 10 2016  01 24  -15.5006 26137.4   3404.7   7.4216 26358.2
 12 10 2016  01 25  -15.5009 26136.8   3405.9   7.4243 26357.8
 12 10 2016  01 26  -15.4995 26137.2   3405.3   7.4230 26358.1
 12 10 2016  01 27  -15.5010 26137.0   3404.2   7.4208 26357.8
 12 10 2016  01 28  -15.5008 26137.2   3404.2   7.4205 26358.0
 12 10 2016  01 29  -15.5009 26136.9   3405.7   7.4238 26357.8
 12 10 2016  01 30  -15.5016 26136.9   3405.3   7.4231 26357.8
 12 10 2016  01 31  -15.5014 26137.3   3404.6   7.4214 26358.1
 12 10 2016  01 32  -15.5014 26137.3   3404.6   7.4215 26358.1
 12 10 2016  01 33  -15.5010 26137.2   3406.0   7.4244 26358.2
 12 10 2016  01 34  -15.5006 26137.4   3405.1   7.4226 26358.3
 12 10 2016  01 35  -15.5010 26137.4   3405.4   7.4232 26358.3
 12 10 2016  01 36  -15.5009 26137.4   3405.1   7.4225 26358.3
 12 10 2016  01 37  -15.5012 26137.3   3405.2   7.4228 26358.2
 12 10 2016  01 38  -15.5009 26137.4   3404.3   7.4208 26358.2
 12 10 2016  01 39  -15.5003 26137.1   3406.1   7.4246 26358.1
 12 10 2016  01 40  -15.5016 26136.7   3405.0   7.4225 26357.6
 12 10 2016  01 41  -15.5027 26136.3   3404.0   7.4205 26357.1
 12 10 2016  01 42  -15.5027 26136.1   3404.6   7.4217 26357.0
 12 10 2016  01 43  -15.5033 26135.5   3404.6   7.4219 26356.4
 12 10 2016  01 44  -15.5021 26135.5   3405.1   7.4231 26356.4
 12 10 2016  01 45  -15.5026 26135.1   3404.5   7.4219 26355.9
 12 10 2016  01 46  -15.5022 26135.1   3404.5   7.4218 26355.9
 12 10 2016  01 47  -15.5023 26135.0   3403.7   7.4201 26355.7
 12 10 2016  01 48  -15.5021 26135.1   3404.6   7.4221 26355.9
 12 10 2016  01 49  -15.5019 26135.0   3405.0   7.4230 26355.9
 12 10 2016  01 50  -15.5026 26134.7   3404.1   7.4211 26355.5
 12 10 2016  01 51  -15.5023 26134.5   3404.3   7.4215 26355.3
 12 10 2016  01 52  -15.5025 26134.1   3404.4   7.4220 26354.9
 12 10 2016  01 53  -15.5024 26133.9   3404.4   7.4220 26354.7
 12 10 2016  01 54  -15.5023 26134.0   3404.3   7.4218 26354.8
 12 10 2016  01 55  -15.5025 26133.7   3404.4   7.4221 26354.5
 12 10 2016  01 56  -15.5030 26133.5   3404.2   7.4216 26354.3
 12 10 2016  01 57  -15.5028 26133.4   3404.5   7.4222 26354.2
 12 10 2016  01 58  -15.5029 26133.3   3404.3   7.4218 26354.1
 12 10 2016  01 59  -15.5026 26133.3   3404.9   7.4233 26354.2
 12 10 2016  02 00  -15.5031 26133.3   3404.3   7.4219 26354.1
 12 10 2016  02 01  -15.5029 26133.6   3404.5   7.4222 26354.4
 12 10 2016  02 02  -15.5031 26133.4   3404.4   7.4221 26354.2
 12 10 2016  02 03  -15.5031 26133.2   3404.1   7.4215 26354.0
 12 10 2016  02 04  -15.5029 26133.2   3403.7   7.4206 26353.9
 12 10 2016  02 05  -15.5033 26133.0   3403.6   7.4204 26353.7
 12 10 2016  02 06  -15.5037 26132.7   3404.6   7.4228 26353.5
 12 10 2016  02 07  -15.5024 26132.9   3405.7   7.4251 26353.9
 12 10 2016  02 08  -15.5034 26132.8   3404.9   7.4233 26353.6
 12 10 2016  02 09  -15.5046 26132.2   3405.6   7.4250 26353.2
 12 10 2016  02 10  -15.5037 26132.5   3404.9   7.4235 26353.4
 12 10 2016  02 11  -15.5052 26132.3   3403.8   7.4211 26353.0
 12 10 2016  02 12  -15.5043 26132.5   3404.3   7.4222 26353.3
 12 10 2016  02 13  -15.5050 26132.4   3403.8   7.4211 26353.1
 12 10 2016  02 14  -15.5044 26132.4   3404.7   7.4230 26353.2
 12 10 2016  02 15  -15.5044 26132.6   3404.2   7.4220 26353.4
 12 10 2016  02 16  -15.5056 26132.3   3403.8   7.4211 26353.0
 12 10 2016  02 17  -15.5043 26132.8   3403.7   7.4208 26353.6
 12 10 2016  02 18  -15.5047 26132.5   3405.2   7.4241 26353.4
 12 10 2016  02 19  -15.5041 26132.8   3405.3   7.4243 26353.8
 12 10 2016  02 20  -15.5054 26132.7   3403.9   7.4214 26353.4
 12 10 2016  02 21  -15.5047 26132.5   3405.9   7.4256 26353.5
 12 10 2016  02 22  -15.5063 26132.6   3404.2   7.4220 26353.4
 12 10 2016  02 23  -15.5051 26133.1   3404.2   7.4217 26353.9
 12 10 2016  02 24  -15.5051 26133.2   3403.8   7.4210 26354.0
 12 10 2016  02 25  -15.5044 26133.1   3405.6   7.4248 26354.1
 12 10 2016  02 26  -15.5051 26132.7   3405.9   7.4255 26353.7
 12 10 2016  02 27  -15.5052 26133.0   3403.9   7.4211 26353.7
 12 10 2016  02 28  -15.5052 26133.2   3402.7   7.4184 26353.8
 12 10 2016  02 29  -15.5055 26133.1   3403.5   7.4204 26353.8
 12 10 2016  02 30  -15.5058 26133.0   3404.5   7.4225 26353.8
 12 10 2016  02 31  -15.5044 26133.3   3404.4   7.4223 26354.1
 12 10 2016  02 32  -15.5055 26133.0   3405.4   7.4244 26353.9
 12 10 2016  02 33  -15.5046 26133.7   3404.3   7.4218 26354.5
 12 10 2016  02 34  -15.5056 26133.4   3404.9   7.4231 26354.3
 12 10 2016  02 35  -15.5072 26133.1   3402.8   7.4188 26353.7
 12 10 2016  02 36  -15.5061 26133.2   3404.2   7.4217 26354.0
 12 10 2016  02 37  -15.5060 26133.5   3402.7   7.4184 26354.1
 12 10 2016  02 38  -15.5055 26133.9   3403.6   7.4202 26354.6
 12 10 2016  02 39  -15.5049 26133.8   3405.6   7.4245 26354.8
 12 10 2016  02 40  -15.5062 26134.0   3404.9   7.4230 26354.9
 12 10 2016  02 41  -15.5050 26134.4   3405.1   7.4233 26355.3
 12 10 2016  02 42  -15.5055 26134.1   3404.4   7.4219 26354.9
 12 10 2016  02 43  -15.5054 26133.8   3404.7   7.4227 26354.7
 12 10 2016  02 44  -15.5053 26133.8   3405.1   7.4236 26354.7
 12 10 2016  02 45  -15.5051 26134.4   3404.4   7.4219 26355.2
 12 10 2016  02 46  -15.5064 26133.9   3404.4   7.4219 26354.7
 12 10 2016  02 47  -15.5057 26133.7   3403.9   7.4210 26354.4
 12 10 2016  02 48  -15.5055 26133.2   3403.8   7.4209 26354.0
 12 10 2016  02 49  -15.5054 26132.8   3403.1   7.4195 26353.4
 12 10 2016  02 50  -15.5049 26132.2   3403.1   7.4196 26352.9
 12 10 2016  02 51  -15.5051 26131.8   3403.4   7.4205 26352.5
 12 10 2016  02 52  -15.5049 26131.8   3403.4   7.4205 26352.5
 12 10 2016  02 53  -15.5051 26131.7   3402.9   7.4194 26352.4
 12 10 2016  02 54  -15.5048 26131.5   3403.5   7.4206 26352.2
 12 10 2016  02 55  -15.5050 26131.3   3403.4   7.4207 26352.0
 12 10 2016  02 56  -15.5052 26131.1   3403.6   7.4211 26351.9
 12 10 2016  02 57  -15.5053 26131.2   3403.4   7.4206 26351.9
 12 10 2016  02 58  -15.5055 26130.9   3403.5   7.4208 26351.7
 12 10 2016  02 59  -15.5055 26130.8   3403.9   7.4217 26351.5
 12 10 2016  03 00  -15.5057 26130.6   3403.3   7.4206 26351.3
 12 10 2016  03 01  -15.5054 26130.5   3403.7   7.4213 26351.3
 12 10 2016  03 02  -15.5055 26130.1   3403.4   7.4210 26350.8
 12 10 2016  03 03  -15.5054 26130.0   3403.9   7.4221 26350.7
 12 10 2016  03 04  -15.5055 26129.7   3403.8   7.4218 26350.5
 12 10 2016  03 05  -15.5057 26129.6   3403.9   7.4220 26350.4
 12 10 2016  03 06  -15.5058 26129.6   3403.7   7.4216 26350.4
 12 10 2016  03 07  -15.5056 26129.5   3404.3   7.4229 26350.3
 12 10 2016  03 08  -15.5058 26129.5   3404.0   7.4225 26350.3
 12 10 2016  03 09  -15.5050 26129.6   3404.5   7.4235 26350.5
 12 10 2016  03 10  -15.5066 26129.3   3404.4   7.4232 26350.2
 12 10 2016  03 11  -15.5058 26129.6   3404.2   7.4227 26350.5
 12 10 2016  03 12  -15.5056 26129.6   3404.6   7.4235 26350.5
 12 10 2016  03 13  -15.5055 26129.7   3403.9   7.4220 26350.5
 12 10 2016  03 14  -15.5067 26129.2   3404.5   7.4235 26350.1
 12 10 2016  03 15  -15.5057 26129.2   3405.5   7.4257 26350.2
 12 10 2016  03 16  -15.5066 26129.2   3404.9   7.4244 26350.1
 12 10 2016  03 17  -15.5053 26129.3   3405.3   7.4252 26350.3
 12 10 2016  03 18  -15.5063 26129.5   3402.8   7.4198 26350.1
 12 10 2016  03 19  -15.5060 26129.4   3403.9   7.4221 26350.2
 12 10 2016  03 20  -15.5063 26129.2   3405.0   7.4246 26350.1
 12 10 2016  03 21  -15.5058 26129.4   3404.2   7.4228 26350.2
 12 10 2016  03 22  -15.5061 26129.5   3404.1   7.4226 26350.3
 12 10 2016  03 23  -15.5057 26129.6   3404.4   7.4232 26350.5
 12 10 2016  03 24  -15.5066 26129.5   3404.0   7.4223 26350.3
 12 10 2016  03 25  -15.5067 26129.7   3403.5   7.4212 26350.4
 12 10 2016  03 26  -15.5067 26129.6   3403.4   7.4210 26350.3
 12 10 2016  03 27  -15.5071 26129.6   3403.5   7.4214 26350.4
 12 10 2016  03 28  -15.5075 26129.4   3404.4   7.4232 26350.3
 12 10 2016  03 29  -15.5076 26129.7   3402.9   7.4200 26350.4
 12 10 2016  03 30  -15.5078 26129.5   3403.6   7.4216 26350.3
 12 10 2016  03 31  -15.5075 26129.5   3404.9   7.4243 26350.4
 12 10 2016  03 32  -15.5069 26129.8   3405.5   7.4255 26350.8
 12 10 2016  03 33  -15.5058 26130.0   3406.4   7.4274 26351.1
 12 10 2016  03 34  -15.5056 26130.5   3404.5   7.4232 26351.3
 12 10 2016  03 35  -15.5062 26130.2   3405.3   7.4250 26351.2
 12 10 2016  03 36  -15.5061 26130.6   3404.1   7.4222 26351.4
 12 10 2016  03 37  -15.5056 26130.7   3405.1   7.4244 26351.6
 12 10 2016  03 38  -15.5052 26130.9   3404.6   7.4233 26351.7
 12 10 2016  03 39  -15.5050 26130.9   3405.2   7.4245 26351.8
 12 10 2016  03 40  -15.5051 26130.9   3404.9   7.4240 26351.8
 12 10 2016  03 41  -15.5047 26131.2   3404.8   7.4236 26352.1
 12 10 2016  03 42  -15.5041 26131.3   3404.7   7.4233 26352.2
 12 10 2016  03 43  -15.5047 26131.2   3403.5   7.4209 26351.9
 12 10 2016  03 44  -15.5049 26131.0   3404.8   7.4236 26351.9
 12 10 2016  03 45  -15.5047 26131.0   3404.7   7.4235 26351.9
 12 10 2016  03 46  -15.5048 26130.4   3405.0   7.4243 26351.4
 12 10 2016  03 47  -15.5045 26130.6   3404.8   7.4237 26351.5
 12 10 2016  03 48  -15.5055 26130.5   3404.5   7.4230 26351.4
 12 10 2016  03 49  -15.5051 26130.5   3404.9   7.4240 26351.4
 12 10 2016  03 50  -15.5047 26130.5   3405.0   7.4242 26351.4
 12 10 2016  03 51  -15.5059 26130.4   3404.5   7.4232 26351.2
 12 10 2016  03 52  -15.5055 26130.5   3404.5   7.4232 26351.4
 12 10 2016  03 53  -15.5059 26130.3   3405.0   7.4242 26351.2
 12 10 2016  03 54  -15.5057 26130.4   3404.6   7.4234 26351.3
 12 10 2016  03 55  -15.5056 26130.6   3405.2   7.4246 26351.5
 12 10 2016  03 56  -15.5057 26130.8   3404.2   7.4224 26351.6
 12 10 2016  03 57  -15.5072 26130.5   3405.1   7.4246 26351.4
 12 10 2016  03 58  -15.5060 26131.2   3404.9   7.4239 26352.1
 12 10 2016  03 59  -15.5077 26130.6   3404.1   7.4222 26351.4
 12 10 2016  04 00  -15.5069 26130.9   3405.3   7.4247 26351.9
 12 10 2016  04 01  -15.5066 26131.3   3403.8   7.4215 26352.0
 12 10 2016  04 02  -15.5073 26130.9   3404.9   7.4240 26351.8
 12 10 2016  04 03  -15.5062 26130.9   3406.0   7.4263 26352.0
 12 10 2016  04 04  -15.5069 26131.0   3404.0   7.4220 26351.8
 12 10 2016  04 05  -15.5079 26130.7   3404.8   7.4238 26351.5
 12 10 2016  04 06  -15.5073 26130.8   3404.9   7.4239 26351.7
 12 10 2016  04 07  -15.5079 26130.6   3404.8   7.4237 26351.5
 12 10 2016  04 08  -15.5081 26130.6   3404.7   7.4236 26351.5
 12 10 2016  04 09  -15.5084 26130.4   3405.4   7.4251 26351.3
 12 10 2016  04 10  -15.5087 26130.5   3404.0   7.4221 26351.3
 12 10 2016  04 11  -15.5084 26130.4   3405.1   7.4246 26351.4
 12 10 2016  04 12  -15.5089 26130.6   3403.2   7.4203 26351.3
 12 10 2016  04 13  -15.5086 26130.4   3404.5   7.4232 26351.3
 12 10 2016  04 14  -15.5086 26130.3   3404.6   7.4234 26351.2
 12 10 2016  04 15  -15.5085 26130.5   3403.4   7.4208 26351.3
 12 10 2016  04 16  -15.5087 26130.6   3404.2   7.4225 26351.4
 12 10 2016  04 17  -15.5086 26130.2   3406.1   7.4266 26351.2
 12 10 2016  04 18  -15.5095 26130.1   3404.4   7.4231 26351.0
 12 10 2016  04 19  -15.5086 26130.6   3405.4   7.4252 26351.5
 12 10 2016  04 20  -15.5093 26130.5   3405.5   7.4252 26351.4
 12 10 2016  04 21  -15.5091 26130.3   3405.6   7.4256 26351.3
 12 10 2016  04 22  -15.5087 26130.5   3404.9   7.4241 26351.4
 12 10 2016  04 23  -15.5092 26131.1   3404.6   7.4232 26352.0
 12 10 2016  04 24  -15.5089 26130.8   3405.1   7.4244 26351.7
 12 10 2016  04 25  -15.5084 26131.8   3405.7   7.4253 26352.8
 12 10 2016  04 26  -15.5093 26131.1   3405.0   7.4240 26352.0
 12 10 2016  04 27  -15.5076 26131.7   3405.7   7.4254 26352.7
 12 10 2016  04 28  -15.5088 26131.5   3404.2   7.4222 26352.3
 12 10 2016  04 29  -15.5085 26131.7   3405.2   7.4242 26352.6
 12 10 2016  04 30  -15.5087 26132.2   3405.3   7.4245 26353.1
 12 10 2016  04 31  -15.5087 26132.2   3405.1   7.4239 26353.1
 12 10 2016  04 32  -15.5087 26132.0   3404.8   7.4234 26352.9
 12 10 2016  04 33  -15.5088 26132.1   3404.7   7.4232 26353.0
 12 10 2016  04 34  -15.5084 26132.1   3405.0   7.4239 26353.0
 12 10 2016  04 35  -15.5085 26132.2   3404.9   7.4236 26353.1
 12 10 2016  04 36  -15.5085 26132.2   3405.2   7.4241 26353.1
 12 10 2016  04 37  -15.5080 26132.4   3405.2   7.4242 26353.3
 12 10 2016  04 38  -15.5080 26132.8   3405.2   7.4241 26353.7
 12 10 2016  04 39  -15.5078 26132.7   3405.2   7.4241 26353.6
 12 10 2016  04 40  -15.5075 26132.7   3405.2   7.4241 26353.6
 12 10 2016  04 41  -15.5073 26132.4   3405.6   7.4249 26353.3
 12 10 2016  04 42  -15.5071 26132.2   3405.1   7.4240 26353.1
 12 10 2016  04 43  -15.5059 26132.0   3405.8   7.4254 26353.0
 12 10 2016  04 44  -15.5064 26131.4   3403.7   7.4213 26352.1
 12 10 2016  04 45  -15.5055 26130.9   3404.3   7.4226 26351.7
 12 10 2016  04 46  -15.5059 26130.4   3404.1   7.4223 26351.2
 12 10 2016  04 47  -15.5059 26130.2   3404.1   7.4224 26351.0
 12 10 2016  04 48  -15.5058 26130.2   3404.2   7.4227 26351.0
 12 10 2016  04 49  -15.5055 26129.8   3404.4   7.4231 26350.7
 12 10 2016  04 50  -15.5058 26129.8   3404.0   7.4222 26350.5
 12 10 2016  04 51  -15.5061 26129.8   3404.5   7.4234 26350.7
 12 10 2016  04 52  -15.5055 26130.0   3405.1   7.4246 26351.0
 12 10 2016  04 53  -15.5054 26130.1   3405.0   7.4243 26351.0
 12 10 2016  04 54  -15.5054 26130.2   3405.1   7.4246 26351.2
 12 10 2016  04 55  -15.5053 26130.2   3405.1   7.4246 26351.2
 12 10 2016  04 56  -15.5053 26130.1   3404.9   7.4241 26351.0
 12 10 2016  04 57  -15.5052 26129.9   3405.2   7.4248 26350.8
 12 10 2016  04 58  -15.5049 26130.0   3405.0   7.4245 26350.9
 12 10 2016  04 59  -15.5052 26129.7   3404.7   7.4239 26350.6
 12 10 2016  05 00  -15.5051 26129.7   3404.6   7.4235 26350.6
 12 10 2016  05 01  -15.5058 26129.5   3405.3   7.4253 26350.4
 12 10 2016  05 02  -15.5047 26130.2   3404.7   7.4236 26351.0
 12 10 2016  05 03  -15.5058 26129.7   3404.5   7.4234 26350.6
 12 10 2016  05 04  -15.5057 26129.5   3405.7   7.4260 26350.6
 12 10 2016  05 05  -15.5054 26130.2   3405.8   7.4261 26351.3
 12 10 2016  05 06  -15.5059 26129.9   3405.7   7.4260 26350.9
 12 10 2016  05 07  -15.5056 26130.4   3404.9   7.4240 26351.3
 12 10 2016  05 08  -15.5073 26130.4   3404.2   7.4225 26351.2
 12 10 2016  05 09  -15.5063 26131.1   3405.6   7.4254 26352.1
 12 10 2016  05 10  -15.5068 26131.6   3404.8   7.4236 26352.5
 12 10 2016  05 11  -15.5060 26131.4   3405.6   7.4252 26352.4
 12 10 2016  05 12  -15.5064 26131.7   3404.6   7.4231 26352.6
 12 10 2016  05 13  -15.5059 26131.8   3405.8   7.4256 26352.8
 12 10 2016  05 14  -15.5067 26131.3   3403.8   7.4214 26352.0
 12 10 2016  05 15  -15.5052 26131.8   3405.7   7.4253 26352.8
 12 10 2016  05 16  -15.5055 26131.7   3405.3   7.4246 26352.6
 12 10 2016  05 17  -15.5058 26131.4   3404.9   7.4237 26352.3
 12 10 2016  05 18  -15.5052 26131.6   3405.2   7.4243 26352.6
 12 10 2016  05 19  -15.5044 26131.8   3406.8   7.4279 26352.9
 12 10 2016  05 20  -15.5048 26131.4   3406.4   7.4270 26352.5
 12 10 2016  05 21  -15.5042 26131.5   3406.5   7.4272 26352.6
 12 10 2016  05 22  -15.5052 26131.6   3404.1   7.4219 26352.4
 12 10 2016  05 23  -15.5046 26131.3   3405.1   7.4242 26352.3
 12 10 2016  05 24  -15.5039 26131.4   3405.2   7.4245 26352.3
 12 10 2016  05 25  -15.5045 26131.2   3403.7   7.4213 26351.9
 12 10 2016  05 26  -15.5050 26130.8   3404.7   7.4236 26351.6
 12 10 2016  05 27  -15.5052 26130.6   3404.3   7.4227 26351.5
 12 10 2016  05 28  -15.5035 26130.8   3406.1   7.4265 26351.8
 12 10 2016  05 29  -15.5044 26130.5   3404.0   7.4222 26351.3
 12 10 2016  05 30  -15.5041 26130.4   3404.9   7.4241 26351.3
 12 10 2016  05 31  -15.5038 26130.4   3403.6   7.4212 26351.1
 12 10 2016  05 32  -15.5043 26130.2   3404.5   7.4233 26351.0
 12 10 2016  05 33  -15.5045 26130.0   3405.5   7.4254 26351.0
 12 10 2016  05 34  -15.5036 26130.4   3405.3   7.4249 26351.4
 12 10 2016  05 35  -15.5046 26130.2   3405.6   7.4256 26351.2
 12 10 2016  05 36  -15.5043 26130.3   3405.2   7.4248 26351.3
 12 10 2016  05 37  -15.5045 26130.9   3405.1   7.4244 26351.8
 12 10 2016  05 38  -15.5051 26130.8   3404.8   7.4237 26351.7
 12 10 2016  05 39  -15.5050 26131.4   3405.9   7.4259 26352.4
 12 10 2016  05 40  -15.5049 26131.8   3405.5   7.4251 26352.7
 12 10 2016  05 41  -15.5047 26131.9   3406.0   7.4260 26353.0
 12 10 2016  05 42  -15.5050 26132.3   3404.5   7.4227 26353.1
 12 10 2016  05 43  -15.5050 26132.1   3406.1   7.4261 26353.1
 12 10 2016  05 44  -15.5048 26132.1   3405.1   7.4240 26353.1
 12 10 2016  05 45  -15.5048 26131.9   3405.2   7.4244 26352.9
 12 10 2016  05 46  -15.5047 26131.6   3405.6   7.4253 26352.6
 12 10 2016  05 47  -15.5047 26131.7   3404.2   7.4222 26352.5
 12 10 2016  05 48  -15.5054 26131.3   3405.6   7.4252 26352.2
 12 10 2016  05 49  -15.5049 26131.4   3405.7   7.4254 26352.4
 12 10 2016  05 50  -15.5060 26131.5   3403.5   7.4207 26352.2
 12 10 2016  05 51  -15.5050 26131.8   3404.0   7.4217 26352.6
 12 10 2016  05 52  -15.5046 26131.8   3405.0   7.4239 26352.8
 12 10 2016  05 53  -15.5049 26131.9   3405.3   7.4246 26352.8
 12 10 2016  05 54  -15.5063 26131.6   3405.4   7.4247 26352.6
 12 10 2016  05 55  -15.5061 26131.9   3405.2   7.4243 26352.8
 12 10 2016  05 56  -15.5065 26131.9   3404.8   7.4234 26352.8
 12 10 2016  05 57  -15.5066 26132.1   3405.0   7.4237 26353.0
 12 10 2016  05 58  -15.5068 26132.0   3404.8   7.4233 26352.9
 12 10 2016  05 59  -15.5069 26132.1   3405.0   7.4237 26353.0
 12 10 2016  06 00  -15.5075 26132.2   3404.7   7.4231 26353.1
 12 10 2016  06 01  -15.5070 26132.4   3404.8   7.4234 26353.3
 12 10 2016  06 02  -15.5074 26132.5   3405.2   7.4240 26353.4
 12 10 2016  06 03  -15.5067 26132.7   3406.6   7.4271 26353.8
 12 10 2016  06 04  -15.5077 26132.5   3405.5   7.4247 26353.4
 12 10 2016  06 05  -15.5066 26132.7   3406.6   7.4270 26353.8
 12 10 2016  06 06  -15.5077 26133.0   3404.8   7.4230 26353.8
 12 10 2016  06 07  -15.5069 26133.5   3404.7   7.4227 26354.4
 12 10 2016  06 08  -15.5073 26133.5   3406.9   7.4275 26354.6
 12 10 2016  06 09  -15.5089 26133.5   3404.1   7.4214 26354.3
 12 10 2016  06 10  -15.5075 26134.4   3405.8   7.4248 26355.4
 12 10 2016  06 11  -15.5077 26134.2   3404.9   7.4230 26355.1
 12 10 2016  06 12  -15.5063 26134.6   3406.4   7.4262 26355.6
 12 10 2016  06 13  -15.5068 26134.7   3405.0   7.4231 26355.6
 12 10 2016  06 14  -15.5078 26133.9   3405.7   7.4249 26354.9
 12 10 2016  06 15  -15.5062 26134.7   3404.7   7.4223 26355.6
 12 10 2016  06 16  -15.5066 26134.5   3404.6   7.4223 26355.4
 12 10 2016  06 17  -15.5062 26134.7   3404.1   7.4211 26355.4
 12 10 2016  06 18  -15.5063 26134.3   3405.6   7.4245 26355.3
 12 10 2016  06 19  -15.5063 26134.6   3403.4   7.4196 26355.3
 12 10 2016  06 20  -15.5071 26134.4   3404.0   7.4210 26355.1
 12 10 2016  06 21  -15.5067 26134.2   3405.5   7.4243 26355.1
 12 10 2016  06 22  -15.5058 26134.5   3405.2   7.4236 26355.4
 12 10 2016  06 23  -15.5061 26134.6   3405.0   7.4230 26355.5
 12 10 2016  06 24  -15.5059 26135.0   3404.8   7.4226 26355.9
 12 10 2016  06 25  -15.5058 26135.4   3405.0   7.4228 26356.3
 12 10 2016  06 26  -15.5051 26136.2   3405.6   7.4240 26357.2
 12 10 2016  06 27  -15.5055 26135.7   3405.7   7.4244 26356.6
 12 10 2016  06 28  -15.5055 26136.2   3405.1   7.4229 26357.1
 12 10 2016  06 29  -15.5060 26136.0   3405.1   7.4230 26356.9
 12 10 2016  06 30  -15.5060 26136.6   3405.8   7.4243 26357.6
 12 10 2016  06 31  -15.5057 26136.4   3404.6   7.4218 26357.2
 12 10 2016  06 32  -15.5060 26136.5   3405.7   7.4240 26357.4
 12 10 2016  06 33  -15.5048 26136.5   3405.1   7.4228 26357.4
 12 10 2016  06 34  -15.5053 26136.3   3404.8   7.4223 26357.2
 12 10 2016  06 35  -15.5054 26135.9   3404.6   7.4219 26356.7
 12 10 2016  06 36  -15.5048 26136.0   3403.9   7.4203 26356.7
 12 10 2016  06 37  -15.5047 26135.8   3403.8   7.4201 26356.5
 12 10 2016  06 38  -15.5040 26135.7   3404.9   7.4226 26356.5
 12 10 2016  06 39  -15.5050 26135.2   3404.7   7.4223 26356.1
 12 10 2016  06 40  -15.5051 26135.3   3403.1   7.4188 26356.0
 12 10 2016  06 41  -15.5042 26135.1   3405.4   7.4237 26356.1
 12 10 2016  06 42  -15.5058 26134.8   3404.2   7.4213 26355.6
 12 10 2016  06 43  -15.5058 26134.9   3403.1   7.4190 26355.5
 12 10 2016  06 44  -15.5054 26134.8   3404.9   7.4227 26355.6
 12 10 2016  06 45  -15.5048 26135.0   3404.0   7.4208 26355.8
 12 10 2016  06 46  -15.5052 26134.9   3404.7   7.4223 26355.7
 12 10 2016  06 47  -15.5056 26135.1   3403.8   7.4204 26355.8
 12 10 2016  06 48  -15.5053 26135.4   3403.6   7.4199 26356.1
 12 10 2016  06 49  -15.5049 26135.9   3403.2   7.4189 26356.5
 12 10 2016  06 50  -15.5046 26135.7   3404.5   7.4217 26356.5
 12 10 2016  06 51  -15.5040 26135.8   3405.5   7.4238 26356.7
 12 10 2016  06 52  -15.5043 26136.1   3404.0   7.4206 26356.8
 12 10 2016  06 53  -15.5053 26135.5   3405.1   7.4231 26356.4
 12 10 2016  06 54  -15.5047 26135.7   3405.4   7.4237 26356.7
 12 10 2016  06 55  -15.5032 26136.0   3404.3   7.4212 26356.8
 12 10 2016  06 56  -15.5036 26135.6   3406.0   7.4249 26356.6
 12 10 2016  06 57  -15.5048 26135.2   3403.9   7.4206 26356.0
 12 10 2016  06 58  -15.5039 26135.3   3404.4   7.4215 26356.1
 12 10 2016  06 59  -15.5022 26135.6   3403.9   7.4205 26356.4
 12 10 2016  07 00  -15.5032 26135.2   3404.6   7.4220 26356.0
 12 10 2016  07 01  -15.5034 26135.0   3405.2   7.4233 26355.9
 12 10 2016  07 02  -15.5028 26135.0   3404.8   7.4225 26355.9
 12 10 2016  07 03  -15.5030 26134.7   3405.2   7.4235 26355.6
 12 10 2016  07 04  -15.5032 26134.4   3405.2   7.4236 26355.3
 12 10 2016  07 05  -15.5022 26134.9   3404.2   7.4213 26355.7
 12 10 2016  07 06  -15.5025 26134.8   3404.3   7.4215 26355.6
 12 10 2016  07 07  -15.5034 26134.6   3404.2   7.4213 26355.3
 12 10 2016  07 08  -15.5033 26134.7   3403.7   7.4203 26355.5
 12 10 2016  07 09  -15.5045 26134.6   3403.1   7.4190 26355.2
 12 10 2016  07 10  -15.5038 26134.9   3402.7   7.4181 26355.5
 12 10 2016  07 11  -15.5031 26135.0   3403.8   7.4204 26355.7
 12 10 2016  07 12  -15.5035 26134.7   3404.0   7.4210 26355.4
 12 10 2016  07 13  -15.5032 26134.9   3404.0   7.4209 26355.6
 12 10 2016  07 14  -15.5045 26134.1   3404.2   7.4214 26354.9
 12 10 2016  07 15  -15.5039 26134.6   3403.7   7.4204 26355.3
 12 10 2016  07 16  -15.5037 26134.3   3404.1   7.4211 26355.1
 12 10 2016  07 17  -15.5035 26134.5   3404.2   7.4213 26355.3
 12 10 2016  07 18  -15.5036 26134.5   3403.8   7.4205 26355.3
 12 10 2016  07 19  -15.5034 26134.7   3404.2   7.4213 26355.4
 12 10 2016  07 20  -15.5035 26134.8   3404.5   7.4220 26355.6
 12 10 2016  07 21  -15.5034 26134.7   3403.9   7.4206 26355.4
 12 10 2016  07 22  -15.5038 26134.9   3403.8   7.4204 26355.6
 12 10 2016  07 23  -15.5038 26134.8   3404.1   7.4212 26355.6
 12 10 2016  07 24  -15.5024 26135.2   3404.8   7.4225 26356.0
 12 10 2016  07 25  -15.5036 26135.0   3404.6   7.4221 26355.8
 12 10 2016  07 26  -15.5028 26135.4   3404.6   7.4219 26356.2
 12 10 2016  07 27  -15.5048 26134.9   3404.2   7.4213 26355.7
 12 10 2016  07 28  -15.5051 26135.1   3403.9   7.4206 26355.8
 12 10 2016  07 29  -15.5044 26135.4   3402.9   7.4183 26356.0
 12 10 2016  07 30  -15.5033 26135.3   3404.4   7.4217 26356.1
 12 10 2016  07 31  -15.5029 26135.5   3403.1   7.4188 26356.2
 12 10 2016  07 32  -15.5028 26135.2   3403.9   7.4206 26355.9
 12 10 2016  07 33  -15.5026 26135.1   3404.2   7.4213 26355.9
 12 10 2016  07 34  -15.5025 26135.0   3403.2   7.4190 26355.7
 12 10 2016  07 35  -15.5024 26134.9   3403.8   7.4203 26355.6
 12 10 2016  07 36  -15.5034 26134.8   3402.4   7.4174 26355.3
 12 10 2016  07 37  -15.5026 26134.6   3403.8   7.4206 26355.3
 12 10 2016  07 38  -15.5021 26134.5   3403.8   7.4205 26355.3
 12 10 2016  07 39  -15.5025 26134.2   3403.4   7.4198 26354.9
 12 10 2016  07 40  -15.5021 26134.0   3403.8   7.4206 26354.7
 12 10 2016  07 41  -15.5023 26133.8   3403.3   7.4197 26354.5
 12 10 2016  07 42  -15.5023 26133.6   3403.5   7.4202 26354.3
 12 10 2016  07 43  -15.5022 26133.6   3403.4   7.4199 26354.3
 12 10 2016  07 44  -15.5023 26133.4   3403.7   7.4206 26354.1
 12 10 2016  07 45  -15.5021 26133.5   3403.6   7.4203 26354.2
 12 10 2016  07 46  -15.5022 26133.4   3403.5   7.4203 26354.1
 12 10 2016  07 47  -15.5022 26133.4   3403.8   7.4209 26354.2
 12 10 2016  07 48  -15.5027 26133.5   3403.7   7.4205 26354.2
 12 10 2016  07 49  -15.5030 26133.7   3403.8   7.4207 26354.4
 12 10 2016  07 50  -15.5033 26133.9   3403.4   7.4199 26354.6
 12 10 2016  07 51  -15.5044 26133.9   3403.6   7.4202 26354.6
 12 10 2016  07 52  -15.5041 26134.1   3404.7   7.4227 26355.0
 12 10 2016  07 53  -15.5048 26134.3   3403.4   7.4198 26355.0
 12 10 2016  07 54  -15.5051 26134.4   3404.3   7.4217 26355.2
 12 10 2016  07 55  -15.5042 26134.6   3404.6   7.4223 26355.4
 12 10 2016  07 56  -15.5038 26135.0   3404.1   7.4210 26355.8
 12 10 2016  07 57  -15.5038 26135.0   3404.7   7.4224 26355.9
 12 10 2016  07 58  -15.5058 26134.8   3403.9   7.4207 26355.5
 12 10 2016  07 59  -15.5059 26134.8   3404.5   7.4221 26355.6
 12 10 2016  08 00  -15.5060 26134.7   3404.7   7.4224 26355.5
 12 10 2016  08 01  -15.5051 26134.8   3404.3   7.4215 26355.6
 12 10 2016  08 02  -15.5066 26134.5   3405.5   7.4241 26355.4
 12 10 2016  08 03  -15.5068 26134.4   3405.3   7.4239 26355.3
 12 10 2016  08 04  -15.5062 26134.7   3404.7   7.4225 26355.5
 12 10 2016  08 05  -15.5058 26135.1   3403.7   7.4201 26355.8
 12 10 2016  08 06  -15.5063 26134.7   3405.0   7.4231 26355.6
 12 10 2016  08 07  -15.5063 26135.2   3403.8   7.4204 26355.9
 12 10 2016  08 08  -15.5059 26135.0   3406.3   7.4258 26356.1
 12 10 2016  08 09  -15.5066 26135.2   3403.9   7.4205 26355.9
 12 10 2016  08 10  -15.5054 26135.5   3403.9   7.4204 26356.3
 12 10 2016  08 11  -15.5059 26135.2   3403.1   7.4187 26355.8
 12 10 2016  08 12  -15.5062 26134.8   3404.0   7.4208 26355.6
 12 10 2016  08 13  -15.5048 26134.7   3405.7   7.4246 26355.6
 12 10 2016  08 14  -15.5052 26134.5   3403.5   7.4199 26355.2
 12 10 2016  08 15  -15.5048 26134.3   3404.8   7.4226 26355.2
 12 10 2016  08 16  -15.5052 26134.0   3403.7   7.4204 26354.7
 12 10 2016  08 17  -15.5049 26133.9   3404.3   7.4218 26354.7
 12 10 2016  08 18  -15.5048 26133.8   3403.3   7.4197 26354.4
 12 10 2016  08 19  -15.5052 26133.6   3403.6   7.4204 26354.3
 12 10 2016  08 20  -15.5047 26133.4   3403.6   7.4205 26354.2
 12 10 2016  08 21  -15.5047 26133.3   3404.2   7.4218 26354.1
 12 10 2016  08 22  -15.5046 26133.7   3404.0   7.4212 26354.4
 12 10 2016  08 23  -15.5046 26133.6   3404.4   7.4221 26354.4
 12 10 2016  08 24  -15.5043 26133.9   3404.6   7.4225 26354.7
 12 10 2016  08 25  -15.5045 26134.2   3404.6   7.4224 26355.0
 12 10 2016  08 26  -15.5042 26134.2   3404.7   7.4225 26355.0
 12 10 2016  08 27  -15.5037 26134.3   3404.7   7.4225 26355.2
 12 10 2016  08 28  -15.5033 26134.2   3405.3   7.4239 26355.1
 12 10 2016  08 29  -15.5028 26134.2   3404.4   7.4220 26355.0
 12 10 2016  08 30  -15.5028 26133.9   3404.8   7.4228 26354.8
 12 10 2016  08 31  -15.5025 26133.9   3403.7   7.4205 26354.6
 12 10 2016  08 32  -15.5023 26133.4   3405.0   7.4234 26354.3
 12 10 2016  08 33  -15.5014 26133.3   3404.7   7.4229 26354.1
 12 10 2016  08 34  -15.5019 26133.2   3404.4   7.4222 26354.0
 12 10 2016  08 35  -15.5023 26133.1   3403.1   7.4194 26353.8
 12 10 2016  08 36  -15.5021 26133.2   3402.7   7.4185 26353.8
 12 10 2016  08 37  -15.5026 26132.8   3404.4   7.4223 26353.6
 12 10 2016  08 38  -15.5016 26133.0   3404.1   7.4217 26353.8
 12 10 2016  08 39  -15.5018 26132.9   3404.2   7.4219 26353.7
 12 10 2016  08 40  -15.5017 26133.0   3404.5   7.4224 26353.8
 12 10 2016  08 41  -15.5018 26133.0   3404.3   7.4221 26353.8
 12 10 2016  08 42  -15.5018 26133.4   3404.7   7.4229 26354.2
 12 10 2016  08 43  -15.5017 26133.5   3404.8   7.4230 26354.3
 12 10 2016  08 44  -15.5018 26133.5   3404.6   7.4226 26354.3
 12 10 2016  08 45  -15.5020 26133.3   3404.5   7.4224 26354.1
 12 10 2016  08 46  -15.5022 26133.2   3404.4   7.4222 26354.0
 12 10 2016  08 47  -15.5022 26133.3   3404.6   7.4225 26354.1
 12 10 2016  08 48  -15.5024 26133.3   3404.6   7.4226 26354.1
 12 10 2016  08 49  -15.5024 26133.5   3404.7   7.4228 26354.3
 12 10 2016  08 50  -15.5022 26133.4   3404.6   7.4225 26354.3
 12 10 2016  08 51  -15.5026 26133.4   3404.4   7.4222 26354.2
 12 10 2016  08 52  -15.5029 26133.1   3404.6   7.4227 26354.0
 12 10 2016  08 53  -15.5032 26133.1   3404.2   7.4218 26353.8
 12 10 2016  08 54  -15.5031 26133.0   3404.6   7.4227 26353.9
 12 10 2016  08 55  -15.5033 26133.2   3404.5   7.4225 26354.0
 12 10 2016  08 56  -15.5034 26133.2   3404.7   7.4228 26354.0
 12 10 2016  08 57  -15.5034 26133.2   3404.5   7.4223 26354.0
 12 10 2016  08 58  -15.5034 26133.1   3404.7   7.4228 26354.0
 12 10 2016  08 59  -15.5032 26132.9   3404.6   7.4227 26353.7
 12 10 2016  09 00  -15.5033 26132.8   3404.6   7.4228 26353.6
 12 10 2016  09 01  -15.5030 26132.8   3405.1   7.4239 26353.7
 12 10 2016  09 02  -15.5031 26132.6   3404.7   7.4230 26353.4
 12 10 2016  09 03  -15.5036 26132.3   3404.6   7.4229 26353.1
 12 10 2016  09 04  -15.5032 26132.4   3404.5   7.4227 26353.2
 12 10 2016  09 05  -15.5035 26132.1   3404.4   7.4224 26353.0
 12 10 2016  09 06  -15.5031 26132.1   3404.8   7.4233 26353.0
 12 10 2016  09 07  -15.5045 26131.5   3405.3   7.4246 26352.5
 12 10 2016  09 08  -15.5039 26132.0   3404.4   7.4224 26352.8
 12 10 2016  09 09  -15.5039 26131.5   3406.2   7.4265 26352.6
 12 10 2016  09 10  -15.5046 26131.6   3404.8   7.4234 26352.5
 12 10 2016  09 11  -15.5051 26131.3   3405.6   7.4253 26352.3
 12 10 2016  09 12  -15.5048 26132.1   3405.2   7.4242 26353.1
 12 10 2016  09 13  -15.5041 26132.1   3405.9   7.4258 26353.2
 12 10 2016  09 14  -15.5045 26132.5   3406.9   7.4278 26353.6
 12 10 2016  09 15  -15.5039 26133.0   3406.7   7.4271 26354.1
 12 10 2016  09 16  -15.5045 26133.3   3405.7   7.4249 26354.3
 12 10 2016  09 17  -15.5040 26134.0   3407.0   7.4276 26355.1
 12 10 2016  09 18  -15.5033 26134.4   3407.7   7.4290 26355.6
 12 10 2016  09 19  -15.5030 26134.6   3408.2   7.4301 26355.9
 12 10 2016  09 20  -15.5023 26134.9   3407.7   7.4287 26356.1
 12 10 2016  09 21  -15.5029 26134.6   3408.6   7.4308 26356.0
 12 10 2016  09 22  -15.5025 26135.0   3406.3   7.4257 26356.1
 12 10 2016  09 23  -15.5015 26135.2   3407.4   7.4282 26356.3
 12 10 2016  09 24  -15.5020 26134.7   3408.5   7.4306 26356.0
 12 10 2016  09 25  -15.5018 26135.0   3406.3   7.4257 26356.1
 12 10 2016  09 26  -15.5020 26134.5   3408.3   7.4303 26355.8
 12 10 2016  09 27  -15.5024 26134.6   3406.2   7.4257 26355.7
 12 10 2016  09 28  -15.5011 26134.7   3407.4   7.4282 26355.9
 12 10 2016  09 29  -15.5019 26134.5   3407.2   7.4280 26355.6
 12 10 2016  09 30  -15.5022 26134.3   3407.0   7.4274 26355.5
 12 10 2016  09 31  -15.5019 26134.2   3407.6   7.4287 26355.4
 12 10 2016  09 32  -15.5015 26134.2   3407.8   7.4292 26355.5
 12 10 2016  09 33  -15.5016 26133.9   3408.2   7.4301 26355.2
 12 10 2016  09 34  -15.5020 26133.7   3407.8   7.4294 26354.9
 12 10 2016  09 35  -15.5025 26133.5   3406.7   7.4270 26354.6
 12 10 2016  09 36  -15.5018 26133.2   3408.8   7.4317 26354.6
 12 10 2016  09 37  -15.5026 26133.1   3406.9   7.4276 26354.3
 12 10 2016  09 38  -15.5017 26132.9   3408.7   7.4316 26354.2
 12 10 2016  09 39  -15.5022 26132.5   3409.2   7.4328 26354.0
 12 10 2016  09 40  -15.5019 26132.7   3407.4   7.4287 26353.9
 12 10 2016  09 41  -15.5017 26132.5   3408.7   7.4316 26353.8
 12 10 2016  09 42  -15.5013 26132.5   3408.6   7.4314 26353.9
 12 10 2016  09 43  -15.5015 26132.4   3408.4   7.4311 26353.8
 12 10 2016  09 44  -15.5016 26132.3   3409.1   7.4326 26353.7
 12 10 2016  09 45  -15.5010 26132.4   3409.3   7.4330 26353.8
 12 10 2016  09 46  -15.5011 26132.3   3409.7   7.4340 26353.8
 12 10 2016  09 47  -15.5012 26132.3   3408.8   7.4318 26353.7
 12 10 2016  09 48  -15.5012 26132.3   3407.9   7.4300 26353.6
 12 10 2016  09 49  -15.5013 26132.1   3408.7   7.4317 26353.5
 12 10 2016  09 50  -15.4996 26132.3   3410.5   7.4355 26354.0
 12 10 2016  09 51  -15.5010 26132.3   3408.2   7.4305 26353.6
 12 10 2016  09 52  -15.5013 26132.1   3408.4   7.4312 26353.5
 12 10 2016  09 53  -15.5009 26131.9   3410.1   7.4347 26353.4
 12 10 2016  09 54  -15.5000 26132.1   3410.3   7.4352 26353.7
 12 10 2016  09 55  -15.5005 26132.0   3410.3   7.4352 26353.6
 12 10 2016  09 56  -15.5010 26132.0   3409.3   7.4330 26353.5
 12 10 2016  09 57  -15.4999 26132.4   3409.1   7.4326 26353.8
 12 10 2016  09 58  -15.5006 26132.1   3410.0   7.4346 26353.6
 12 10 2016  09 59  -15.5012 26131.9   3409.6   7.4338 26353.4
 12 10 2016  10 00  -15.5010 26132.0   3409.3   7.4332 26353.4
 12 10 2016  10 01  -15.5010 26131.9   3409.9   7.4343 26353.5
 12 10 2016  10 02  -15.5011 26131.8   3410.8   7.4364 26353.5
 12 10 2016  10 03  -15.5007 26132.0   3410.3   7.4353 26353.6
 12 10 2016  10 04  -15.5011 26132.1   3408.2   7.4307 26353.4
 12 10 2016  10 05  -15.5006 26132.0   3409.7   7.4340 26353.5
 12 10 2016  10 06  -15.5001 26131.8   3411.0   7.4369 26353.5
 12 10 2016  10 07  -15.5008 26131.8   3409.9   7.4345 26353.3
 12 10 2016  10 08  -15.5001 26131.8   3411.1   7.4371 26353.5
 12 10 2016  10 09  -15.5005 26131.7   3410.2   7.4350 26353.3
 12 10 2016  10 10  -15.4998 26131.9   3410.0   7.4347 26353.4
 12 10 2016  10 11  -15.5009 26131.9   3408.7   7.4319 26353.3
 12 10 2016  10 12  -15.5002 26131.9   3410.0   7.4346 26353.5
 12 10 2016  10 13  -15.5004 26131.9   3409.5   7.4336 26353.3
 12 10 2016  10 14  -15.4998 26131.9   3410.3   7.4353 26353.5
 12 10 2016  10 15  -15.5004 26131.8   3409.5   7.4335 26353.3
 12 10 2016  10 16  -15.4997 26132.0   3409.9   7.4343 26353.6
 12 10 2016  10 17  -15.4992 26132.2   3409.7   7.4339 26353.7
 12 10 2016  10 18  -15.4998 26132.0   3410.0   7.4345 26353.6
 12 10 2016  10 19  -15.4994 26132.0   3409.8   7.4343 26353.5
 12 10 2016  10 20  -15.4991 26132.0   3410.5   7.4357 26353.6
 12 10 2016  10 21  -15.4985 26131.9   3410.8   7.4363 26353.6
 12 10 2016  10 22  -15.4997 26131.8   3410.4   7.4355 26353.4
 12 10 2016  10 23  -15.4994 26131.9   3409.5   7.4336 26353.4
 12 10 2016  10 24  -15.4991 26131.9   3409.5   7.4336 26353.4
 12 10 2016  10 25  -15.4989 26131.8   3410.2   7.4350 26353.3
 12 10 2016  10 26  -15.4985 26132.1   3410.1   7.4348 26353.7
 12 10 2016  10 27  -15.4983 26132.2   3409.8   7.4340 26353.8
 12 10 2016  10 28  -15.4980 26132.5   3409.8   7.4340 26354.0
 12 10 2016  10 29  -15.4982 26132.5   3410.2   7.4349 26354.0
 12 10 2016  10 30  -15.4982 26132.6   3408.8   7.4319 26354.0
 12 10 2016  10 31  -15.4974 26132.6   3409.9   7.4342 26354.1
 12 10 2016  10 32  -15.4973 26132.7   3410.4   7.4353 26354.3
 12 10 2016  10 33  -15.4971 26133.0   3410.8   7.4361 26354.7
 12 10 2016  10 34  -15.4963 26133.2   3410.5   7.4352 26354.8
 12 10 2016  10 35  -15.4964 26133.0   3409.2   7.4326 26354.4
 12 10 2016  10 36  -15.4970 26132.8   3409.4   7.4331 26354.2
 12 10 2016  10 37  -15.4962 26133.3   3408.5   7.4310 26354.7
 12 10 2016  10 38  -15.4958 26133.6   3409.9   7.4339 26355.1
 12 10 2016  10 39  -15.4968 26133.8   3408.2   7.4302 26355.1
 12 10 2016  10 40  -15.4960 26133.8   3408.7   7.4313 26355.2
 12 10 2016  10 41  -15.4966 26133.7   3408.2   7.4303 26355.0
 12 10 2016  10 42  -15.4957 26133.7   3409.1   7.4321 26355.1
 12 10 2016  10 43  -15.4959 26133.8   3409.0   7.4320 26355.2
 12 10 2016  10 44  -15.4963 26133.8   3406.9   7.4275 26355.0
 12 10 2016  10 45  -15.4953 26133.9   3407.8   7.4293 26355.2
 12 10 2016  10 46  -15.4957 26133.8   3407.5   7.4287 26355.0
 12 10 2016  10 47  -15.4953 26133.7   3407.3   7.4283 26354.8
 12 10 2016  10 48  -15.4946 26133.4   3407.9   7.4296 26354.7
 12 10 2016  10 49  -15.4946 26133.3   3407.5   7.4288 26354.6
 12 10 2016  10 50  -15.4942 26133.6   3407.1   7.4279 26354.7
 12 10 2016  10 51  -15.4947 26133.2   3406.8   7.4274 26354.3
 12 10 2016  10 52  -15.4939 26133.1   3407.1   7.4280 26354.2
 12 10 2016  10 53  -15.4938 26132.8   3407.4   7.4288 26354.0
 12 10 2016  10 54  -15.4932 26133.1   3407.3   7.4284 26354.2
 12 10 2016  10 55  -15.4931 26133.2   3406.9   7.4276 26354.3
 12 10 2016  10 56  -15.4925 26133.4   3407.8   7.4295 26354.6
 12 10 2016  10 57  -15.4921 26133.5   3408.1   7.4301 26354.8
 12 10 2016  10 58  -15.4921 26133.8   3407.1   7.4278 26354.9
 12 10 2016  10 59  -15.4909 26134.3   3407.5   7.4286 26355.5
 12 10 2016  11 00  -15.4914 26134.6   3407.4   7.4282 26355.8
 12 10 2016  11 01  -15.4914 26135.0   3406.9   7.4270 26356.1
 12 10 2016  11 02  -15.4916 26135.0   3407.4   7.4282 26356.2
 12 10 2016  11 03  -15.4910 26135.5   3406.5   7.4261 26356.5
 12 10 2016  11 04  -15.4913 26135.5   3406.2   7.4255 26356.6
 12 10 2016  11 05  -15.4909 26135.6   3406.0   7.4250 26356.6
 12 10 2016  11 06  -15.4909 26135.3   3406.5   7.4260 26356.4
 12 10 2016  11 07  -15.4910 26135.2   3406.2   7.4254 26356.2
 12 10 2016  11 08  -15.4903 26135.5   3405.9   7.4247 26356.5
 12 10 2016  11 09  -15.4910 26135.4   3406.5   7.4261 26356.4
 12 10 2016  11 10  -15.4907 26135.8   3406.2   7.4254 26356.8
 12 10 2016  11 11  -15.4908 26136.1   3405.4   7.4236 26357.0
 12 10 2016  11 12  -15.4898 26136.6   3404.1   7.4206 26357.4
 12 10 2016  11 13  -15.4893 26136.6   3404.9   7.4224 26357.4
 12 10 2016  11 14  -15.4889 26136.5   3405.5   7.4236 26357.4
 12 10 2016  11 15  -15.4882 26136.6   3405.7   7.4240 26357.5
 12 10 2016  11 16  -15.4886 26136.6   3405.2   7.4230 26357.5
 12 10 2016  11 17  -15.4883 26136.8   3404.8   7.4220 26357.7
 12 10 2016  11 18  -15.4872 26137.1   3405.6   7.4237 26358.1
 12 10 2016  11 19  -15.4882 26137.1   3403.9   7.4201 26357.8
 12 10 2016  11 20  -15.4876 26137.1   3404.6   7.4216 26357.9
 12 10 2016  11 21  -15.4874 26137.4   3403.5   7.4192 26358.0
 12 10 2016  11 22  -15.4862 26137.5   3404.1   7.4202 26358.3
 12 10 2016  11 23  -15.4872 26137.2   3403.4   7.4189 26357.8
 12 10 2016  11 24  -15.4867 26137.5   3403.5   7.4190 26358.1
 12 10 2016  11 25  -15.4861 26137.9   3403.4   7.4186 26358.6
 12 10 2016  11 26  -15.4853 26138.2   3403.3   7.4184 26358.8
 12 10 2016  11 27  -15.4853 26138.4   3403.5   7.4189 26359.0
 12 10 2016  11 28  -15.4860 26138.4   3403.0   7.4177 26359.0
 12 10 2016  11 29  -15.4850 26138.8   3402.9   7.4175 26359.4
 12 10 2016  11 30  -15.4843 26139.3   3402.6   7.4166 26359.8
 12 10 2016  11 31  -15.4837 26139.7   3401.7   7.4145 26360.1
 12 10 2016  11 32  -15.4839 26140.0   3400.7   7.4122 26360.3
 12 10 2016  11 33  -15.4839 26140.0   3401.0   7.4130 26360.3
 12 10 2016  11 34  -15.4838 26139.9   3402.0   7.4151 26360.4
 12 10 2016  11 35  -15.4835 26140.6   3400.6   7.4119 26360.9
 12 10 2016  11 36  -15.4832 26140.8   3400.1   7.4107 26361.0
 12 10 2016  11 37  -15.4830 26141.0   3400.5   7.4116 26361.2
 12 10 2016  11 38  -15.4830 26141.1   3399.1   7.4084 26361.2
 12 10 2016  11 39  -15.4818 26141.1   3400.2   7.4108 26361.3
 12 10 2016  11 40  -15.4825 26140.8   3399.3   7.4090 26360.9
 12 10 2016  11 41  -15.4819 26140.8   3399.6   7.4097 26360.9
 12 10 2016  11 42  -15.4813 26140.8   3399.1   7.4086 26360.9
 12 10 2016  11 43  -15.4816 26140.9   3398.6   7.4075 26360.9
 12 10 2016  11 44  -15.4815 26141.2   3397.7   7.4054 26361.1
 12 10 2016  11 45  -15.4809 26141.4   3398.6   7.4074 26361.4
 12 10 2016  11 46  -15.4815 26141.5   3398.0   7.4060 26361.4
 12 10 2016  11 47  -15.4807 26141.9   3397.4   7.4046 26361.8
 12 10 2016  11 48  -15.4795 26142.3   3398.0   7.4058 26362.2
 12 10 2016  11 49  -15.4792 26142.6   3397.5   7.4047 26362.5
 12 10 2016  11 50  -15.4803 26142.6   3396.3   7.4022 26362.3
 12 10 2016  11 51  -15.4797 26142.9   3396.2   7.4018 26362.5
 12 10 2016  11 52  -15.4789 26143.1   3395.1   7.3994 26362.7
 12 10 2016  11 53  -15.4794 26143.1   3395.4   7.3999 26362.7
 12 10 2016  11 54  -15.4790 26143.0   3394.1   7.3973 26362.4
 12 10 2016  11 55  -15.4785 26143.2   3394.2   7.3975 26362.6
 12 10 2016  11 56  -15.4785 26143.1   3393.9   7.3968 26362.5
 12 10 2016  11 57  -15.4782 26143.3   3393.8   7.3965 26362.6
 12 10 2016  11 58  -15.4780 26143.6   3393.2   7.3952 26362.9
 12 10 2016  11 59  -15.4780 26143.8   3392.5   7.3936 26363.0
 12 10 2016  12 00  -15.4777 26143.9   3392.6   7.3938 26363.1
 12 10 2016  12 01  -15.4782 26143.7   3392.4   7.3934 26362.9
 12 10 2016  12 02  -15.4780 26143.9   3391.2   7.3906 26363.0
 12 10 2016  12 03  -15.4775 26144.1   3391.8   7.3919 26363.2
 12 10 2016  12 04  -15.4775 26144.4   3391.4   7.3909 26363.5
 12 10 2016  12 05  -15.4780 26144.4   3391.1   7.3904 26363.4
 12 10 2016  12 06  -15.4773 26144.6   3390.5   7.3891 26363.5
 12 10 2016  12 07  -15.4773 26144.9   3389.9   7.3877 26363.7
 12 10 2016  12 08  -15.4767 26145.1   3390.0   7.3878 26364.0
 12 10 2016  12 09  -15.4768 26145.6   3389.7   7.3870 26364.4
 12 10 2016  12 10  -15.4767 26145.4   3389.1   7.3859 26364.2
 12 10 2016  12 11  -15.4772 26145.4   3387.9   7.3833 26364.0
 12 10 2016  12 12  -15.4777 26144.6   3388.2   7.3840 26363.2
 12 10 2016  12 13  -15.4782 26144.6   3388.0   7.3837 26363.2
 12 10 2016  12 14  -15.4783 26145.0   3387.8   7.3830 26363.6
 12 10 2016  12 15  -15.4782 26145.9   3387.8   7.3828 26364.4
 12 10 2016  12 16  -15.4777 26146.6   3388.1   7.3833 26365.2
 12 10 2016  12 17  -15.4777 26147.3   3387.3   7.3814 26365.8
 12 10 2016  12 18  -15.4776 26148.2   3387.4   7.3813 26366.7
 12 10 2016  12 19  -15.4771 26149.1   3386.7   7.3795 26367.5
 12 10 2016  12 20  -15.4767 26149.8   3386.3   7.3785 26368.1
 12 10 2016  12 21  -15.4763 26150.0   3385.9   7.3776 26368.3
 12 10 2016  12 22  -15.4766 26150.1   3384.2   7.3738 26368.2
 12 10 2016  12 23  -15.4773 26150.0   3383.7   7.3728 26368.0
 12 10 2016  12 24  -15.4761 26150.4   3383.0   7.3711 26368.3
 12 10 2016  12 25  -15.4773 26149.7   3383.0   7.3715 26367.6
 12 10 2016  12 26  -15.4766 26149.6   3382.1   7.3695 26367.4
 12 10 2016  12 27  -15.4777 26148.9   3381.9   7.3694 26366.7
 12 10 2016  12 28  -15.4766 26148.9   3382.8   7.3712 26366.8
 12 10 2016  12 29  -15.4777 26148.8   3381.1   7.3677 26366.5
 12 10 2016  12 30  -15.4777 26148.7   3381.7   7.3690 26366.5
 12 10 2016  12 31  -15.4766 26149.2   3381.4   7.3682 26366.9
 12 10 2016  12 32  -15.4769 26149.1   3382.1   7.3696 26366.9
 12 10 2016  12 33  -15.4771 26149.4   3380.0   7.3651 26367.0
 12 10 2016  12 34  -15.4766 26149.5   3382.6   7.3705 26367.4
 12 10 2016  12 35  -15.4776 26149.6   3381.3   7.3678 26367.3
 12 10 2016  12 36  -15.4774 26150.2   3380.0   7.3649 26367.8
 12 10 2016  12 37  -15.4761 26150.4   3381.7   7.3684 26368.1
 12 10 2016  12 38  -15.4761 26151.1   3379.7   7.3641 26368.6
 12 10 2016  12 39  -15.4760 26151.4   3379.6   7.3635 26368.9
 12 10 2016  12 40  -15.4761 26151.3   3378.1   7.3605 26368.5
 12 10 2016  12 41  -15.4754 26151.4   3379.0   7.3624 26368.8
 12 10 2016  12 42  -15.4760 26151.3   3378.4   7.3611 26368.6
 12 10 2016  12 43  -15.4761 26151.1   3378.8   7.3621 26368.5
 12 10 2016  12 44  -15.4756 26151.5   3379.5   7.3635 26369.0
 12 10 2016  12 45  -15.4753 26152.2   3378.2   7.3603 26369.5
 12 10 2016  12 46  -15.4750 26152.6   3378.8   7.3617 26370.0
 12 10 2016  12 47  -15.4745 26153.7   3379.3   7.3623 26371.1
 12 10 2016  12 48  -15.4740 26154.5   3379.0   7.3616 26371.9
 12 10 2016  12 49  -15.4755 26155.0   3377.7   7.3587 26372.2
 12 10 2016  12 50  -15.4737 26156.0   3377.7   7.3583 26373.2
 12 10 2016  12 51  -15.4743 26155.8   3377.3   7.3574 26373.0
 12 10 2016  12 52  -15.4751 26155.8   3375.9   7.3543 26372.8
 12 10 2016  12 53  -15.4755 26155.6   3374.8   7.3521 26372.5
 12 10 2016  12 54  -15.4752 26155.7   3375.4   7.3533 26372.6
 12 10 2016  12 55  -15.4754 26155.6   3373.8   7.3500 26372.3
 12 10 2016  12 56  -15.4749 26155.3   3374.5   7.3515 26372.1
 12 10 2016  12 57  -15.4750 26154.9   3373.1   7.3487 26371.5
 12 10 2016  12 58  -15.4747 26155.2   3373.1   7.3485 26371.8
 12 10 2016  12 59  -15.4756 26155.5   3372.9   7.3481 26372.1
 12 10 2016  13 00  -15.4755 26155.7   3373.2   7.3486 26372.4
 12 10 2016  13 01  -15.4751 26155.9   3372.3   7.3467 26372.4
 12 10 2016  13 02  -15.4739 26156.7   3374.2   7.3505 26373.4
 12 10 2016  13 03  -15.4746 26157.1   3373.5   7.3488 26373.8
 12 10 2016  13 04  -15.4744 26157.7   3373.3   7.3483 26374.3
 12 10 2016  13 05  -15.4741 26158.4   3372.5   7.3465 26374.9
 12 10 2016  13 06  -15.4731 26159.1   3374.2   7.3499 26375.8
 12 10 2016  13 07  -15.4722 26160.5   3374.3   7.3497 26377.2
 12 10 2016  13 08  -15.4719 26162.0   3373.3   7.3470 26378.6
 12 10 2016  13 09  -15.4716 26163.3   3373.2   7.3465 26379.9
 12 10 2016  13 10  -15.4713 26164.0   3372.9   7.3458 26380.5
 12 10 2016  13 11  -15.4713 26164.0   3370.6   7.3408 26380.2
 12 10 2016  13 12  -15.4711 26163.5   3369.5   7.3386 26379.6
 12 10 2016  13 13  -15.4723 26162.1   3369.2   7.3383 26378.2
 12 10 2016  13 14  -15.4730 26161.3   3368.3   7.3365 26377.2
 12 10 2016  13 15  -15.4744 26160.5   3368.1   7.3363 26376.4
 12 10 2016  13 16  -15.4739 26160.5   3370.0   7.3405 26376.7
 12 10 2016  13 17  -15.4742 26160.8   3369.1   7.3385 26376.8
 12 10 2016  13 18  -15.4740 26161.3   3369.7   7.3395 26377.4
 12 10 2016  13 19  -15.4730 26161.8   3369.4   7.3388 26377.9
 12 10 2016  13 20  -15.4732 26161.6   3368.6   7.3371 26377.6
 12 10 2016  13 21  -15.4735 26161.6   3368.8   7.3375 26377.6
 12 10 2016  13 22  -15.4743 26161.6   3368.2   7.3362 26377.6
 12 10 2016  13 23  -15.4738 26161.8   3368.4   7.3366 26377.7
 12 10 2016  13 24  -15.4737 26162.0   3368.7   7.3371 26378.0
 12 10 2016  13 25  -15.4728 26162.3   3369.0   7.3378 26378.4
 12 10 2016  13 26  -15.4736 26162.4   3368.4   7.3364 26378.3
 12 10 2016  13 27  -15.4743 26162.6   3367.1   7.3336 26378.4
 12 10 2016  13 28  -15.4739 26162.7   3367.0   7.3334 26378.5
 12 10 2016  13 29  -15.4740 26162.8   3367.2   7.3339 26378.6
 12 10 2016  13 30  -15.4735 26163.4   3366.5   7.3320 26379.1
 12 10 2016  13 31  -15.4734 26163.6   3367.1   7.3334 26379.4
 12 10 2016  13 32  -15.4730 26164.4   3366.6   7.3321 26380.1
 12 10 2016  13 33  -15.4741 26164.7   3367.0   7.3327 26380.5
 12 10 2016  13 34  -15.4738 26165.4   3366.7   7.3319 26381.1
 12 10 2016  13 35  -15.4742 26165.7   3366.4   7.3311 26381.4
 12 10 2016  13 36  -15.4733 26166.1   3366.5   7.3314 26381.8
 12 10 2016  13 37  -15.4750 26165.9   3365.3   7.3287 26381.4
 12 10 2016  13 38  -15.4754 26165.7   3365.1   7.3285 26381.2
 12 10 2016  13 39  -15.4748 26166.0   3365.7   7.3295 26381.6
 12 10 2016  13 40  -15.4747 26166.3   3364.4   7.3268 26381.7
 12 10 2016  13 41  -15.4743 26166.7   3363.7   7.3251 26382.0
 12 10 2016  13 42  -15.4753 26166.4   3364.6   7.3271 26381.9
 12 10 2016  13 43  -15.4751 26167.0   3363.5   7.3246 26382.3
 12 10 2016  13 44  -15.4753 26166.8   3364.3   7.3263 26382.2
 12 10 2016  13 45  -15.4762 26166.8   3362.2   7.3218 26381.9
 12 10 2016  13 46  -15.4759 26166.9   3362.3   7.3220 26382.1
 12 10 2016  13 47  -15.4764 26167.1   3362.2   7.3217 26382.2
 12 10 2016  13 48  -15.4771 26167.4   3361.5   7.3202 26382.4
 12 10 2016  13 49  -15.4756 26168.1   3362.1   7.3213 26383.2
 12 10 2016  13 50  -15.4765 26168.5   3362.7   7.3225 26383.7
 12 10 2016  13 51  -15.4773 26169.0   3361.6   7.3200 26384.1
 12 10 2016  13 52  -15.4768 26169.5   3361.7   7.3200 26384.6
 12 10 2016  13 53  -15.4763 26169.8   3361.9   7.3204 26384.8
 12 10 2016  13 54  -15.4761 26170.1   3362.0   7.3204 26385.2
 12 10 2016  13 55  -15.4771 26170.6   3361.4   7.3190 26385.6
 12 10 2016  13 56  -15.4769 26171.6   3359.8   7.3155 26386.3
 12 10 2016  13 57  -15.4774 26171.7   3360.2   7.3162 26386.5
 12 10 2016  13 58  -15.4770 26171.9   3359.8   7.3154 26386.7
 12 10 2016  13 59  -15.4781 26172.0   3359.3   7.3143 26386.7
 12 10 2016  14 00  -15.4778 26172.6   3358.4   7.3121 26387.1
 12 10 2016  14 01  -15.4781 26172.7   3358.8   7.3129 26387.4
 12 10 2016  14 02  -15.4779 26173.2   3359.1   7.3135 26387.8
 12 10 2016  14 03  -15.4781 26173.4   3358.1   7.3112 26388.0
 12 10 2016  14 04  -15.4776 26173.6   3357.8   7.3106 26388.1
 12 10 2016  14 05  -15.4776 26173.2   3359.0   7.3131 26387.8
 12 10 2016  14 06  -15.4781 26173.4   3359.6   7.3144 26388.1
 12 10 2016  14 07  -15.4796 26173.9   3357.6   7.3100 26388.3
 12 10 2016  14 08  -15.4787 26174.4   3358.6   7.3121 26389.0
 12 10 2016  14 09  -15.4796 26174.6   3358.4   7.3114 26389.2
 12 10 2016  14 10  -15.4796 26175.0   3357.8   7.3101 26389.5
 12 10 2016  14 11  -15.4795 26174.7   3357.7   7.3101 26389.2
 12 10 2016  14 12  -15.4803 26174.2   3357.8   7.3104 26388.7
 12 10 2016  14 13  -15.4802 26174.2   3356.7   7.3081 26388.6
 12 10 2016  14 14  -15.4805 26174.6   3356.4   7.3072 26388.9
 12 10 2016  14 15  -15.4792 26175.2   3357.3   7.3090 26389.7
 12 10 2016  14 16  -15.4805 26175.4   3357.5   7.3095 26389.8
 12 10 2016  14 17  -15.4797 26175.9   3357.2   7.3085 26390.3
 12 10 2016  14 18  -15.4805 26175.8   3357.4   7.3091 26390.2
 12 10 2016  14 19  -15.4810 26175.8   3356.9   7.3080 26390.1
 12 10 2016  14 20  -15.4810 26175.8   3356.1   7.3063 26390.1
 12 10 2016  14 21  -15.4809 26175.8   3356.5   7.3072 26390.1
 12 10 2016  14 22  -15.4821 26175.6   3355.8   7.3057 26389.8
 12 10 2016  14 23  -15.4805 26176.0   3357.1   7.3083 26390.3
 12 10 2016  14 24  -15.4813 26176.0   3356.1   7.3062 26390.3
 12 10 2016  14 25  -15.4814 26176.1   3356.4   7.3068 26390.4
 12 10 2016  14 26  -15.4819 26176.7   3355.4   7.3045 26390.8
 12 10 2016  14 27  -15.4812 26177.2   3356.0   7.3057 26391.5
 12 10 2016  14 28  -15.4810 26177.8   3355.3   7.3039 26391.9
 12 10 2016  14 29  -15.4811 26178.1   3354.8   7.3029 26392.2
 12 10 2016  14 30  -15.4818 26178.1   3354.6   7.3023 26392.2
 12 10 2016  14 31  -15.4811 26178.3   3354.8   7.3027 26392.4
 12 10 2016  14 32  -15.4813 26178.1   3354.2   7.3015 26392.2
 12 10 2016  14 33  -15.4814 26178.7   3354.1   7.3011 26392.7
 12 10 2016  14 34  -15.4816 26178.8   3355.1   7.3034 26393.0
 12 10 2016  14 35  -15.4818 26179.0   3353.6   7.2999 26393.0
 12 10 2016  14 36  -15.4812 26179.3   3353.3   7.2993 26393.2
 12 10 2016  14 37  -15.4810 26179.4   3352.4   7.2973 26393.2
 12 10 2016  14 38  -15.4805 26180.2   3353.2   7.2987 26394.0
 12 10 2016  14 39  -15.4819 26180.1   3353.7   7.2999 26394.0
 12 10 2016  14 40  -15.4818 26180.7   3352.5   7.2972 26394.5
 12 10 2016  14 41  -15.4815 26181.4   3353.7   7.2996 26395.4
 12 10 2016  14 42  -15.4808 26182.2   3353.5   7.2989 26396.1
 12 10 2016  14 43  -15.4810 26182.7   3352.5   7.2965 26396.5
 12 10 2016  14 44  -15.4814 26183.2   3352.8   7.2971 26397.0
 12 10 2016  14 45  -15.4817 26183.3   3351.7   7.2947 26397.0
 12 10 2016  14 46  -15.4813 26184.0   3351.3   7.2937 26397.6
 12 10 2016  14 47  -15.4807 26184.7   3351.1   7.2930 26398.3
 12 10 2016  14 48  -15.4812 26183.9   3351.8   7.2947 26397.6
 12 10 2016  14 49  -15.4809 26183.8   3349.6   7.2901 26397.2
 12 10 2016  14 50  -15.4814 26183.8   3349.9   7.2908 26397.2
 12 10 2016  14 51  -15.4806 26183.8   3351.2   7.2935 26397.4
 12 10 2016  14 52  -15.4810 26184.0   3350.3   7.2915 26397.4
 12 10 2016  14 53  -15.4812 26184.0   3350.8   7.2925 26397.6
 12 10 2016  14 54  -15.4828 26183.9   3349.2   7.2891 26397.2
 12 10 2016  14 55  -15.4825 26183.6   3348.8   7.2883 26396.9
 12 10 2016  14 56  -15.4816 26183.1   3349.1   7.2891 26396.4
 12 10 2016  14 57  -15.4821 26182.9   3349.2   7.2894 26396.3
 12 10 2016  14 58  -15.4817 26182.9   3349.4   7.2900 26396.3
 12 10 2016  14 59  -15.4821 26183.1   3349.1   7.2891 26396.4
 12 10 2016  15 00  -15.4807 26183.7   3350.1   7.2911 26397.1
 12 10 2016  15 01  -15.4809 26184.1   3349.2   7.2890 26397.4
 12 10 2016  15 02  -15.4810 26183.7   3348.2   7.2870 26396.9
 12 10 2016  15 03  -15.4813 26183.2   3348.8   7.2885 26396.5
 12 10 2016  15 04  -15.4813 26183.2   3348.6   7.2880 26396.5
 12 10 2016  15 05  -15.4801 26184.2   3349.4   7.2895 26397.6
 12 10 2016  15 06  -15.4800 26184.9   3349.6   7.2897 26398.3
 12 10 2016  15 07  -15.4817 26184.4   3346.6   7.2833 26397.4
 12 10 2016  15 08  -15.4824 26184.0   3346.4   7.2830 26397.0
 12 10 2016  15 09  -15.4827 26184.2   3347.4   7.2852 26397.3
 12 10 2016  15 10  -15.4825 26186.0   3347.9   7.2858 26399.1
 12 10 2016  15 11  -15.4820 26187.8   3348.8   7.2873 26401.0
 12 10 2016  15 12  -15.4831 26186.9   3347.1   7.2839 26399.9
 12 10 2016  15 13  -15.4835 26188.0   3346.1   7.2814 26400.9
 12 10 2016  15 14  -15.4823 26188.6   3346.6   7.2822 26401.6
 12 10 2016  15 15  -15.4827 26188.4   3345.7   7.2804 26401.3
 12 10 2016  15 16  -15.4833 26189.0   3346.4   7.2817 26402.0
 12 10 2016  15 17  -15.4827 26190.1   3345.2   7.2789 26402.9
 12 10 2016  15 18  -15.4821 26191.3   3345.3   7.2788 26404.1
 12 10 2016  15 19  -15.4816 26192.6   3345.6   7.2789 26405.4
 12 10 2016  15 20  -15.4804 26193.7   3344.6   7.2766 26406.4
 12 10 2016  15 21  -15.4799 26193.3   3343.1   7.2735 26405.8
 12 10 2016  15 22  -15.4797 26192.2   3343.3   7.2743 26404.7
 12 10 2016  15 23  -15.4799 26191.3   3341.5   7.2705 26403.6
 12 10 2016  15 24  -15.4806 26189.4   3339.4   7.2665 26401.4
 12 10 2016  15 25  -15.4825 26187.8   3339.2   7.2666 26399.8
 12 10 2016  15 26  -15.4836 26186.9   3339.4   7.2672 26399.0
 12 10 2016  15 27  -15.4832 26186.3   3340.1   7.2690 26398.5
 12 10 2016  15 28  -15.4836 26185.6   3341.8   7.2727 26398.0
 12 10 2016  15 29  -15.4840 26185.9   3341.8   7.2727 26398.3
 12 10 2016  15 30  -15.4839 26186.7   3344.4   7.2780 26399.4
 12 10 2016  15 31  -15.4832 26187.7   3343.1   7.2750 26400.2
 12 10 2016  15 32  -15.4844 26187.7   3343.1   7.2750 26400.2
 12 10 2016  15 33  -15.4859 26186.9   3342.7   7.2743 26399.4
 12 10 2016  15 34  -15.4855 26187.3   3341.5   7.2716 26399.6
 12 10 2016  15 35  -15.4856 26187.3   3341.6   7.2719 26399.6
 12 10 2016  15 36  -15.4859 26186.8   3342.2   7.2733 26399.2
 12 10 2016  15 37  -15.4859 26186.3   3341.8   7.2726 26398.6
 12 10 2016  15 38  -15.4852 26185.7   3341.8   7.2728 26398.1
 12 10 2016  15 39  -15.4857 26185.2   3341.9   7.2732 26397.6
 12 10 2016  15 40  -15.4849 26185.5   3340.9   7.2708 26397.7
 12 10 2016  15 41  -15.4865 26185.1   3340.6   7.2704 26397.3
 12 10 2016  15 42  -15.4860 26184.6   3341.2   7.2718 26396.9
 12 10 2016  15 43  -15.4868 26183.9   3341.9   7.2735 26396.3
 12 10 2016  15 44  -15.4872 26183.5   3340.8   7.2711 26395.7
 12 10 2016  15 45  -15.4888 26181.7   3341.2   7.2726 26394.0
 12 10 2016  15 46  -15.4889 26182.3   3341.4   7.2729 26394.6
 12 10 2016  15 47  -15.4882 26182.2   3342.2   7.2744 26394.6
 12 10 2016  15 48  -15.4882 26183.3   3342.7   7.2753 26395.8
 12 10 2016  15 49  -15.4870 26184.5   3343.2   7.2760 26397.0
 12 10 2016  15 50  -15.4866 26184.7   3343.2   7.2761 26397.3
 12 10 2016  15 51  -15.4867 26185.2   3343.2   7.2758 26397.8
 12 10 2016  15 52  -15.4878 26184.8   3343.2   7.2760 26397.3
 12 10 2016  15 53  -15.4870 26184.6   3343.3   7.2762 26397.1
 12 10 2016  15 54  -15.4862 26185.9   3342.3   7.2738 26398.3
 12 10 2016  15 55  -15.4864 26185.9   3343.0   7.2752 26398.4
 12 10 2016  15 56  -15.4865 26186.4   3343.0   7.2752 26399.0
 12 10 2016  15 57  -15.4854 26187.2   3342.3   7.2735 26399.6
 12 10 2016  15 58  -15.4868 26187.2   3341.4   7.2714 26399.5
 12 10 2016  15 59  -15.4864 26187.1   3341.3   7.2712 26399.4
 12 10 2016  16 00  -15.4868 26186.1   3341.1   7.2711 26398.4
 12 10 2016  16 01  -15.4867 26185.6   3341.7   7.2726 26398.0
 12 10 2016  16 02  -15.4876 26185.5   3340.9   7.2709 26397.8
 12 10 2016  16 03  -15.4875 26185.5   3341.4   7.2720 26397.8
 12 10 2016  16 04  -15.4876 26186.1   3341.6   7.2721 26398.5
 12 10 2016  16 05  -15.4885 26186.4   3341.6   7.2721 26398.7
 12 10 2016  16 06  -15.4894 26185.9   3341.3   7.2716 26398.2
 12 10 2016  16 07  -15.4887 26185.2   3340.6   7.2703 26397.4
 12 10 2016  16 08  -15.4870 26184.3   3341.6   7.2726 26396.7
 12 10 2016  16 09  -15.4873 26185.0   3341.3   7.2719 26397.3
 12 10 2016  16 10  -15.4862 26186.1   3341.9   7.2729 26398.5
 12 10 2016  16 11  -15.4864 26187.1   3343.3   7.2755 26399.7
 12 10 2016  16 12  -15.4878 26187.3   3343.6   7.2761 26399.9
 12 10 2016  16 13  -15.4904 26185.7   3341.4   7.2718 26398.0
 12 10 2016  16 14  -15.4899 26183.7   3341.2   7.2720 26396.0
 12 10 2016  16 15  -15.4913 26182.0   3340.2   7.2703 26394.2
 12 10 2016  16 16  -15.4904 26181.1   3339.7   7.2696 26393.2
 12 10 2016  16 17  -15.4896 26180.5   3342.0   7.2747 26392.9
 12 10 2016  16 18  -15.4889 26180.6   3342.3   7.2751 26393.1
 12 10 2016  16 19  -15.4900 26180.4   3343.2   7.2772 26393.0
 12 10 2016  16 20  -15.4888 26182.2   3343.8   7.2780 26394.8
 12 10 2016  16 21  -15.4895 26183.7   3344.8   7.2798 26396.5
 12 10 2016  16 22  -15.4889 26186.3   3344.8   7.2791 26399.1
 12 10 2016  16 23  -15.4900 26188.1   3344.4   7.2776 26400.8
 12 10 2016  16 24  -15.4906 26187.1   3341.7   7.2722 26399.4
 12 10 2016  16 25  -15.4902 26183.6   3341.2   7.2719 26395.9
 12 10 2016  16 26  -15.4913 26181.3   3338.9   7.2677 26393.4
 12 10 2016  16 27  -15.4922 26182.0   3341.5   7.2731 26394.4
 12 10 2016  16 28  -15.4914 26182.4   3343.3   7.2768 26395.0
 12 10 2016  16 29  -15.4911 26181.9   3342.8   7.2758 26394.4
 12 10 2016  16 30  -15.4917 26181.6   3342.6   7.2756 26394.1
 12 10 2016  16 31  -15.4911 26181.2   3342.6   7.2757 26393.7
 12 10 2016  16 32  -15.4913 26180.2   3343.8   7.2786 26392.9
 12 10 2016  16 33  -15.4905 26180.4   3343.5   7.2779 26393.0
 12 10 2016  16 34  -15.4914 26181.0   3344.8   7.2805 26393.8
 12 10 2016  16 35  -15.4899 26182.3   3345.3   7.2812 26395.2
 12 10 2016  16 36  -15.4894 26182.6   3346.2   7.2830 26395.6
 12 10 2016  16 37  -15.4894 26182.0   3344.7   7.2799 26394.8
 12 10 2016  16 38  -15.4898 26180.4   3346.0   7.2832 26393.4
 12 10 2016  16 39  -15.4894 26180.2   3346.5   7.2844 26393.3
 12 10 2016  16 40  -15.4903 26180.7   3346.7   7.2846 26393.8
 12 10 2016  16 41  -15.4913 26179.5   3346.3   7.2840 26392.5
 12 10 2016  16 42  -15.4915 26179.2   3344.6   7.2805 26392.0
 12 10 2016  16 43  -15.4923 26178.8   3345.0   7.2816 26391.7
 12 10 2016  16 44  -15.4932 26178.5   3346.9   7.2857 26391.6
 12 10 2016  16 45  -15.4934 26178.0   3346.5   7.2850 26391.1
 12 10 2016  16 46  -15.4923 26177.5   3347.1   7.2864 26390.6
 12 10 2016  16 47  -15.4928 26176.7   3347.3   7.2871 26389.9
 12 10 2016  16 48  -15.4943 26176.1   3347.0   7.2865 26389.2
 12 10 2016  16 49  -15.4937 26175.8   3347.2   7.2871 26389.0
 12 10 2016  16 50  -15.4943 26176.6   3348.0   7.2885 26389.9
 12 10 2016  16 51  -15.4940 26177.0   3347.9   7.2883 26390.3
 12 10 2016  16 52  -15.4935 26176.7   3349.0   7.2907 26390.1
 12 10 2016  16 53  -15.4933 26176.6   3348.4   7.2895 26389.9
 12 10 2016  16 54  -15.4940 26176.2   3349.3   7.2916 26389.6
 12 10 2016  16 55  -15.4919 26176.5   3350.4   7.2938 26390.0
 12 10 2016  16 56  -15.4914 26176.8   3350.1   7.2931 26390.4
 12 10 2016  16 57  -15.4911 26177.3   3351.2   7.2952 26390.9
 12 10 2016  16 58  -15.4915 26178.1   3352.0   7.2968 26391.9
 12 10 2016  16 59  -15.4925 26178.4   3351.1   7.2947 26392.0
 12 10 2016  17 00  -15.4926 26178.5   3349.4   7.2911 26391.9
 12 10 2016  17 01  -15.4939 26176.6   3350.2   7.2933 26390.1
 12 10 2016  17 02  -15.4928 26175.4   3349.4   7.2920 26388.8
 12 10 2016  17 03  -15.4926 26174.6   3348.8   7.2909 26388.0
 12 10 2016  17 04  -15.4928 26173.7   3350.4   7.2945 26387.3
 12 10 2016  17 05  -15.4934 26173.9   3350.2   7.2941 26387.5
 12 10 2016  17 06  -15.4927 26174.0   3351.2   7.2963 26387.7
 12 10 2016  17 07  -15.4927 26173.8   3351.5   7.2969 26387.6
 12 10 2016  17 08  -15.4929 26173.7   3352.0   7.2980 26387.4
 12 10 2016  17 09  -15.4924 26173.6   3351.4   7.2968 26387.3
 12 10 2016  17 10  -15.4922 26173.1   3352.8   7.2998 26387.0
 12 10 2016  17 11  -15.4925 26172.6   3351.8   7.2979 26386.4
 12 10 2016  17 12  -15.4917 26172.5   3352.1   7.2985 26386.3
 12 10 2016  17 13  -15.4923 26172.2   3352.0   7.2984 26386.0
 12 10 2016  17 14  -15.4922 26172.2   3352.8   7.3002 26386.1
 12 10 2016  17 15  -15.4925 26172.5   3351.8   7.2979 26386.2
 12 10 2016  17 16  -15.4918 26171.7   3352.6   7.2998 26385.5
 12 10 2016  17 17  -15.4924 26171.3   3353.3   7.3015 26385.3
 12 10 2016  17 18  -15.4916 26171.0   3354.0   7.3030 26385.0
 12 10 2016  17 19  -15.4921 26170.7   3354.0   7.3032 26384.7
 12 10 2016  17 20  -15.4918 26170.4   3353.3   7.3016 26384.3
 12 10 2016  17 21  -15.4934 26170.4   3352.6   7.3002 26384.3
 12 10 2016  17 22  -15.4935 26170.1   3354.0   7.3033 26384.1
 12 10 2016  17 23  -15.4932 26169.9   3354.5   7.3044 26384.0
 12 10 2016  17 24  -15.4929 26169.3   3353.7   7.3028 26383.3
 12 10 2016  17 25  -15.4926 26169.1   3353.3   7.3021 26383.1
 12 10 2016  17 26  -15.4933 26168.8   3353.7   7.3029 26382.8
 12 10 2016  17 27  -15.4928 26168.6   3353.6   7.3029 26382.6
 12 10 2016  17 28  -15.4929 26167.7   3354.4   7.3047 26381.8
 12 10 2016  17 29  -15.4926 26167.8   3355.2   7.3066 26382.1
 12 10 2016  17 30  -15.4939 26168.0   3354.2   7.3042 26382.1
 12 10 2016  17 31  -15.4945 26167.2   3353.9   7.3040 26381.3
 12 10 2016  17 32  -15.4953 26167.1   3354.1   7.3044 26381.2
 12 10 2016  17 33  -15.4956 26166.5   3354.7   7.3059 26380.7
 12 10 2016  17 34  -15.4955 26166.4   3353.8   7.3038 26380.5
 12 10 2016  17 35  -15.4949 26166.3   3354.2   7.3048 26380.4
 12 10 2016  17 36  -15.4956 26165.0   3355.3   7.3076 26379.3
 12 10 2016  17 37  -15.4957 26165.2   3353.9   7.3043 26379.3
 12 10 2016  17 38  -15.4949 26165.3   3355.6   7.3081 26379.6
 12 10 2016  17 39  -15.4954 26165.5   3355.1   7.3070 26379.7
 12 10 2016  17 40  -15.4958 26165.8   3354.4   7.3054 26379.9
 12 10 2016  17 41  -15.4958 26166.1   3355.6   7.3079 26380.4
 12 10 2016  17 42  -15.4949 26166.0   3357.0   7.3108 26380.5
 12 10 2016  17 43  -15.4959 26166.5   3355.8   7.3081 26380.8
 12 10 2016  17 44  -15.4946 26166.9   3356.5   7.3095 26381.3
 12 10 2016  17 45  -15.4944 26167.1   3358.0   7.3128 26381.7
 12 10 2016  17 46  -15.4956 26166.8   3357.2   7.3111 26381.3
 12 10 2016  17 47  -15.4960 26167.3   3357.4   7.3114 26381.9
 12 10 2016  17 48  -15.4969 26167.6   3357.0   7.3104 26382.1
 12 10 2016  17 49  -15.4969 26167.9   3357.1   7.3105 26382.4
 12 10 2016  17 50  -15.4963 26168.4   3355.9   7.3079 26382.7
 12 10 2016  17 51  -15.4966 26168.4   3356.7   7.3097 26382.8
 12 10 2016  17 52  -15.4983 26167.9   3356.2   7.3087 26382.2
 12 10 2016  17 53  -15.4982 26167.4   3356.3   7.3089 26381.8
 12 10 2016  17 54  -15.4991 26167.4   3355.6   7.3074 26381.6
 12 10 2016  17 55  -15.4991 26167.4   3355.9   7.3082 26381.7
 12 10 2016  17 56  -15.4990 26167.4   3355.2   7.3066 26381.7
 12 10 2016  17 57  -15.4993 26166.8   3356.6   7.3097 26381.2
 12 10 2016  17 58  -15.5003 26166.4   3356.5   7.3097 26380.8
 12 10 2016  17 59  -15.5002 26165.8   3356.2   7.3092 26380.1
 12 10 2016  18 00  -15.5003 26165.8   3355.1   7.3069 26380.0
 12 10 2016  18 01  -15.4988 26165.7   3355.8   7.3084 26380.0
 12 10 2016  18 02  -15.5000 26165.3   3355.3   7.3075 26379.6
 12 10 2016  18 03  -15.4991 26165.6   3355.8   7.3084 26379.9
 12 10 2016  18 04  -15.4993 26165.1   3356.2   7.3095 26379.5
 12 10 2016  18 05  -15.5002 26165.0   3356.5   7.3101 26379.4
 12 10 2016  18 06  -15.5000 26165.0   3356.7   7.3105 26379.5
 12 10 2016  18 07  -15.5016 26164.6   3355.1   7.3071 26378.8
 12 10 2016  18 08  -15.5010 26164.4   3355.5   7.3081 26378.7
 12 10 2016  18 09  -15.5011 26163.9   3356.2   7.3098 26378.3
 12 10 2016  18 10  -15.5024 26163.2   3354.8   7.3069 26377.4
 12 10 2016  18 11  -15.5025 26162.7   3355.3   7.3081 26377.0
 12 10 2016  18 12  -15.5022 26162.3   3356.7   7.3112 26376.8
 12 10 2016  18 13  -15.5016 26162.8   3357.2   7.3123 26377.3
 12 10 2016  18 14  -15.5030 26162.5   3357.4   7.3127 26377.0
 12 10 2016  18 15  -15.5035 26162.1   3356.8   7.3116 26376.6
 12 10 2016  18 16  -15.5036 26162.5   3356.9   7.3117 26377.0
 12 10 2016  18 17  -15.5039 26162.4   3358.4   7.3150 26377.1
 12 10 2016  18 18  -15.5041 26162.4   3358.1   7.3142 26377.1
 12 10 2016  18 19  -15.5045 26162.0   3358.3   7.3148 26376.7
 12 10 2016  18 20  -15.5039 26162.5   3358.7   7.3156 26377.2
 12 10 2016  18 21  -15.5044 26162.4   3357.8   7.3136 26377.0
 12 10 2016  18 22  -15.5034 26162.8   3358.1   7.3143 26377.4
 12 10 2016  18 23  -15.5036 26162.7   3359.0   7.3161 26377.5
 12 10 2016  18 24  -15.5033 26163.2   3358.5   7.3150 26377.9
 12 10 2016  18 25  -15.5041 26163.4   3358.0   7.3138 26378.0
 12 10 2016  18 26  -15.5034 26163.7   3358.4   7.3146 26378.3
 12 10 2016  18 27  -15.5044 26162.8   3357.8   7.3135 26377.4
 12 10 2016  18 28  -15.5034 26162.3   3357.6   7.3132 26376.8
 12 10 2016  18 29  -15.5030 26162.2   3358.1   7.3143 26376.9
 12 10 2016  18 30  -15.5041 26161.4   3357.0   7.3122 26375.9
 12 10 2016  18 31  -15.5030 26161.4   3356.9   7.3120 26375.9
 12 10 2016  18 32  -15.5045 26160.7   3356.8   7.3120 26375.2
 12 10 2016  18 33  -15.5037 26159.7   3356.8   7.3122 26374.2
 12 10 2016  18 34  -15.5045 26159.1   3357.1   7.3129 26373.7
 12 10 2016  18 35  -15.5043 26159.1   3356.1   7.3109 26373.5
 12 10 2016  18 36  -15.5048 26158.7   3356.2   7.3111 26373.1
 12 10 2016  18 37  -15.5052 26158.0   3355.2   7.3093 26372.3
 12 10 2016  18 38  -15.5057 26158.3   3355.7   7.3102 26372.6
 12 10 2016  18 39  -15.5044 26158.8   3356.5   7.3118 26373.2
 12 10 2016  18 40  -15.5055 26158.3   3356.6   7.3121 26372.7
 12 10 2016  18 41  -15.5060 26158.0   3356.7   7.3125 26372.4
 12 10 2016  18 42  -15.5059 26158.7   3356.4   7.3116 26373.1
 12 10 2016  18 43  -15.5057 26158.5   3357.2   7.3133 26373.1
 12 10 2016  18 44  -15.5067 26158.2   3356.7   7.3125 26372.7
 12 10 2016  18 45  -15.5062 26158.8   3357.7   7.3143 26373.4
 12 10 2016  18 46  -15.5074 26158.4   3357.4   7.3139 26373.0
 12 10 2016  18 47  -15.5074 26158.5   3356.8   7.3124 26373.0
 12 10 2016  18 48  -15.5077 26158.7   3356.0   7.3108 26373.1
 12 10 2016  18 49  -15.5088 26158.3   3357.2   7.3134 26372.9
 12 10 2016  18 50  -15.5089 26158.3   3357.4   7.3139 26372.9
 12 10 2016  18 51  -15.5087 26158.3   3356.4   7.3118 26372.7
 12 10 2016  18 52  -15.5096 26158.1   3356.0   7.3109 26372.5
 12 10 2016  18 53  -15.5104 26158.1   3356.3   7.3116 26372.5
 12 10 2016  18 54  -15.5104 26157.7   3356.6   7.3123 26372.2
 12 10 2016  18 55  -15.5103 26156.9   3357.7   7.3148 26371.5
 12 10 2016  18 56  -15.5105 26156.5   3356.3   7.3120 26371.0
 12 10 2016  18 57  -15.5108 26156.2   3356.8   7.3131 26370.7
 12 10 2016  18 58  -15.5111 26156.0   3357.1   7.3139 26370.6
 12 10 2016  18 59  -15.5120 26155.9   3357.5   7.3147 26370.5
 12 10 2016  19 00  -15.5136 26155.4   3356.4   7.3126 26369.9
 12 10 2016  19 01  -15.5121 26155.2   3357.6   7.3152 26369.8
 12 10 2016  19 02  -15.5138 26154.3   3357.6   7.3153 26368.9
 12 10 2016  19 03  -15.5138 26154.1   3356.8   7.3137 26368.6
 12 10 2016  19 04  -15.5150 26153.7   3357.6   7.3156 26368.3
 12 10 2016  19 05  -15.5152 26153.6   3358.3   7.3171 26368.3
 12 10 2016  19 06  -15.5159 26153.4   3357.9   7.3163 26368.1
 12 10 2016  19 07  -15.5163 26153.7   3357.4   7.3151 26368.3
 12 10 2016  19 08  -15.5171 26153.8   3357.8   7.3161 26368.5
 12 10 2016  19 09  -15.5168 26154.0   3357.9   7.3161 26368.7
 12 10 2016  19 10  -15.5181 26153.3   3357.3   7.3152 26367.9
 12 10 2016  19 11  -15.5180 26152.5   3357.5   7.3157 26367.2
 12 10 2016  19 12  -15.5182 26152.8   3357.7   7.3160 26367.4
 12 10 2016  19 13  -15.5193 26152.4   3356.8   7.3142 26366.9
 12 10 2016  19 14  -15.5201 26151.5   3356.3   7.3134 26366.0
 12 10 2016  19 15  -15.5197 26150.9   3357.6   7.3163 26365.6
 12 10 2016  19 16  -15.5195 26150.4   3358.9   7.3193 26365.2
 12 10 2016  19 17  -15.5195 26150.2   3358.9   7.3193 26365.0
 12 10 2016  19 18  -15.5210 26149.6   3359.1   7.3200 26364.5
 12 10 2016  19 19  -15.5222 26150.0   3357.6   7.3166 26364.7
 12 10 2016  19 20  -15.5216 26149.9   3359.1   7.3198 26364.8
 12 10 2016  19 21  -15.5219 26150.0   3358.2   7.3178 26364.8
 12 10 2016  19 22  -15.5219 26149.5   3358.2   7.3180 26364.3
 12 10 2016  19 23  -15.5225 26148.9   3358.6   7.3190 26363.7
 12 10 2016  19 24  -15.5230 26149.0   3360.0   7.3220 26363.9
 12 10 2016  19 25  -15.5234 26148.7   3359.3   7.3207 26363.6
 12 10 2016  19 26  -15.5242 26148.9   3360.1   7.3224 26363.9
 12 10 2016  19 27  -15.5239 26149.3   3360.2   7.3225 26364.3
 12 10 2016  19 28  -15.5250 26149.2   3361.8   7.3258 26364.4
 12 10 2016  19 29  -15.5255 26149.3   3361.3   7.3249 26364.4
 12 10 2016  19 30  -15.5260 26149.1   3361.2   7.3246 26364.3
 12 10 2016  19 31  -15.5253 26149.1   3360.8   7.3237 26364.1
 12 10 2016  19 32  -15.5247 26148.5   3361.4   7.3253 26363.7
 12 10 2016  19 33  -15.5259 26148.1   3359.8   7.3219 26363.1
 12 10 2016  19 34  -15.5256 26147.8   3360.9   7.3242 26362.9
 12 10 2016  19 35  -15.5254 26147.8   3360.1   7.3227 26362.8
 12 10 2016  19 36  -15.5254 26147.2   3362.3   7.3276 26362.5
 12 10 2016  19 37  -15.5268 26146.5   3361.2   7.3253 26361.7
 12 10 2016  19 38  -15.5271 26146.3   3361.9   7.3268 26361.5
 12 10 2016  19 39  -15.5256 26146.8   3362.8   7.3286 26362.1
 12 10 2016  19 40  -15.5265 26146.6   3362.7   7.3284 26362.0
 12 10 2016  19 41  -15.5278 26146.0   3363.1   7.3295 26361.4
 12 10 2016  19 42  -15.5265 26146.2   3362.9   7.3291 26361.6
 12 10 2016  19 43  -15.5277 26145.2   3363.4   7.3304 26360.7
 12 10 2016  19 44  -15.5273 26145.2   3364.7   7.3333 26360.8
 12 10 2016  19 45  -15.5272 26145.4   3365.0   7.3339 26361.0
 12 10 2016  19 46  -15.5263 26145.5   3365.9   7.3357 26361.3
 12 10 2016  19 47  -15.5266 26145.7   3364.0   7.3316 26361.3
 12 10 2016  19 48  -15.5267 26145.7   3366.3   7.3366 26361.5
 12 10 2016  19 49  -15.5283 26145.7   3366.6   7.3372 26361.5
 12 10 2016  19 50  -15.5284 26146.1   3366.5   7.3368 26362.0
 12 10 2016  19 51  -15.5276 26146.4   3365.4   7.3345 26362.1
 12 10 2016  19 52  -15.5269 26146.1   3366.8   7.3375 26362.0
 12 10 2016  19 53  -15.5277 26145.9   3367.1   7.3382 26361.8
 12 10 2016  19 54  -15.5292 26146.1   3367.2   7.3385 26362.0
 12 10 2016  19 55  -15.5286 26145.4   3367.1   7.3384 26361.3
 12 10 2016  19 56  -15.5282 26146.1   3366.7   7.3372 26361.9
 12 10 2016  19 57  -15.5298 26144.2   3367.8   7.3402 26360.2
 12 10 2016  19 58  -15.5295 26144.0   3368.3   7.3414 26360.1
 12 10 2016  19 59  -15.5290 26143.7   3368.4   7.3416 26359.8
 12 10 2016  20 00  -15.5286 26143.5   3369.0   7.3430 26359.6
 12 10 2016  20 01  -15.5293 26143.2   3368.8   7.3427 26359.3
 12 10 2016  20 02  -15.5291 26143.0   3369.4   7.3440 26359.2
 12 10 2016  20 03  -15.5290 26142.9   3370.4   7.3462 26359.3
 12 10 2016  20 04  -15.5288 26143.4   3370.8   7.3469 26359.8
 12 10 2016  20 05  -15.5297 26143.3   3371.0   7.3473 26359.7
 12 10 2016  20 06  -15.5295 26143.4   3371.3   7.3479 26359.9
 12 10 2016  20 07  -15.5298 26142.6   3371.8   7.3492 26359.1
 12 10 2016  20 08  -15.5301 26142.1   3371.0   7.3476 26358.6
 12 10 2016  20 09  -15.5291 26141.9   3371.8   7.3494 26358.4
 12 10 2016  20 10  -15.5294 26141.7   3371.9   7.3497 26358.2
 12 10 2016  20 11  -15.5292 26141.7   3372.5   7.3510 26358.4
 12 10 2016  20 12  -15.5296 26141.6   3373.1   7.3524 26358.4
 12 10 2016  20 13  -15.5299 26141.4   3374.2   7.3549 26358.3
 12 10 2016  20 14  -15.5297 26141.6   3374.0   7.3542 26358.4
 12 10 2016  20 15  -15.5295 26141.7   3373.8   7.3538 26358.5
 12 10 2016  20 16  -15.5292 26141.4   3374.2   7.3548 26358.3
 12 10 2016  20 17  -15.5293 26140.9   3374.0   7.3544 26357.8
 12 10 2016  20 18  -15.5292 26140.5   3374.9   7.3566 26357.4
 12 10 2016  20 19  -15.5288 26140.2   3375.5   7.3580 26357.3
 12 10 2016  20 20  -15.5280 26140.1   3376.2   7.3595 26357.3
 12 10 2016  20 21  -15.5286 26139.9   3376.1   7.3593 26357.0
 12 10 2016  20 22  -15.5297 26139.5   3376.7   7.3607 26356.7
 12 10 2016  20 23  -15.5285 26139.7   3377.2   7.3617 26357.0
 12 10 2016  20 24  -15.5282 26139.7   3377.3   7.3619 26356.9
 12 10 2016  20 25  -15.5285 26139.5   3377.2   7.3618 26356.8
 12 10 2016  20 26  -15.5280 26139.6   3377.0   7.3614 26356.8
 12 10 2016  20 27  -15.5288 26139.1   3377.2   7.3618 26356.4
 12 10 2016  20 28  -15.5274 26139.1   3378.5   7.3647 26356.5
 12 10 2016  20 29  -15.5267 26139.2   3378.9   7.3655 26356.6
 12 10 2016  20 30  -15.5284 26138.6   3378.5   7.3648 26356.0
 12 10 2016  20 31  -15.5275 26138.7   3378.8   7.3654 26356.2
 12 10 2016  20 32  -15.5270 26138.5   3379.9   7.3679 26356.1
 12 10 2016  20 33  -15.5269 26138.5   3378.4   7.3646 26355.9
 12 10 2016  20 34  -15.5275 26137.6   3379.2   7.3667 26355.1
 12 10 2016  20 35  -15.5272 26137.3   3378.4   7.3650 26354.7
 12 10 2016  20 36  -15.5261 26136.9   3380.3   7.3691 26354.6
 12 10 2016  20 37  -15.5266 26136.4   3380.5   7.3697 26354.1
 12 10 2016  20 38  -15.5268 26136.3   3379.7   7.3679 26353.9
 12 10 2016  20 39  -15.5268 26136.2   3380.2   7.3691 26353.8
 12 10 2016  20 40  -15.5263 26136.0   3381.7   7.3725 26353.9
 12 10 2016  20 41  -15.5261 26135.9   3382.1   7.3733 26353.9
 12 10 2016  20 42  -15.5255 26136.2   3381.7   7.3724 26354.0
 12 10 2016  20 43  -15.5254 26136.2   3382.5   7.3742 26354.1
 12 10 2016  20 44  -15.5252 26136.8   3382.1   7.3732 26354.7
 12 10 2016  20 45  -15.5249 26136.3   3383.4   7.3760 26354.4
 12 10 2016  20 46  -15.5248 26136.3   3383.1   7.3755 26354.4
 12 10 2016  20 47  -15.5244 26136.2   3383.1   7.3755 26354.3
 12 10 2016  20 48  -15.5246 26136.2   3384.5   7.3785 26354.4
 12 10 2016  20 49  -15.5240 26136.6   3385.6   7.3807 26355.0
 12 10 2016  20 50  -15.5254 26136.5   3385.6   7.3807 26354.8
 12 10 2016  20 51  -15.5245 26136.2   3386.0   7.3817 26354.7
 12 10 2016  20 52  -15.5250 26136.2   3384.5   7.3784 26354.4
 12 10 2016  20 53  -15.5243 26136.3   3386.2   7.3822 26354.8
 12 10 2016  20 54  -15.5247 26136.3   3386.7   7.3832 26354.8
 12 10 2016  20 55  -15.5245 26136.2   3387.1   7.3840 26354.8
 12 10 2016  20 56  -15.5246 26135.9   3386.6   7.3831 26354.4
 12 10 2016  20 57  -15.5239 26136.1   3387.4   7.3847 26354.7
 12 10 2016  20 58  -15.5243 26136.0   3387.5   7.3850 26354.7
 12 10 2016  20 59  -15.5239 26136.2   3388.1   7.3862 26354.9
 12 10 2016  21 00  -15.5235 26136.5   3388.6   7.3873 26355.2
 12 10 2016  21 01  -15.5229 26136.5   3388.9   7.3879 26355.3
 12 10 2016  21 02  -15.5226 26136.5   3389.6   7.3894 26355.4
 12 10 2016  21 03  -15.5222 26136.5   3390.4   7.3911 26355.5
 12 10 2016  21 04  -15.5222 26136.5   3389.8   7.3897 26355.4
 12 10 2016  21 05  -15.5222 26136.1   3390.8   7.3920 26355.1
 12 10 2016  21 06  -15.5222 26136.0   3389.5   7.3893 26354.8
 12 10 2016  21 07  -15.5212 26135.7   3391.0   7.3925 26354.8
 12 10 2016  21 08  -15.5217 26135.4   3390.3   7.3911 26354.4
 12 10 2016  21 09  -15.5214 26135.3   3390.7   7.3921 26354.3
 12 10 2016  21 10  -15.5209 26135.1   3391.3   7.3934 26354.2
 12 10 2016  21 11  -15.5207 26135.0   3391.2   7.3933 26354.1
 12 10 2016  21 12  -15.5205 26134.9   3391.4   7.3937 26354.0
 12 10 2016  21 13  -15.5204 26134.7   3391.9   7.3948 26353.8
 12 10 2016  21 14  -15.5205 26134.4   3392.1   7.3953 26353.6
 12 10 2016  21 15  -15.5201 26134.3   3392.3   7.3958 26353.5
 12 10 2016  21 16  -15.5200 26134.3   3392.3   7.3958 26353.6
 12 10 2016  21 17  -15.5201 26134.3   3393.1   7.3976 26353.7
 12 10 2016  21 18  -15.5198 26134.8   3393.0   7.3972 26354.1
 12 10 2016  21 19  -15.5200 26134.8   3393.4   7.3980 26354.2
 12 10 2016  21 20  -15.5198 26134.9   3394.1   7.3994 26354.4
 12 10 2016  21 21  -15.5197 26135.3   3394.3   7.3997 26354.8
 12 10 2016  21 22  -15.5194 26135.5   3394.7   7.4007 26355.1
 12 10 2016  21 23  -15.5195 26135.7   3394.2   7.3995 26355.2
 12 10 2016  21 24  -15.5191 26136.1   3394.9   7.4009 26355.7
 12 10 2016  21 25  -15.5186 26136.3   3394.7   7.4004 26355.8
 12 10 2016  21 26  -15.5186 26136.0   3395.0   7.4011 26355.6
 12 10 2016  21 27  -15.5185 26135.8   3394.8   7.4009 26355.3
 12 10 2016  21 28  -15.5185 26135.6   3395.2   7.4018 26355.2
 12 10 2016  21 29  -15.5182 26135.7   3395.6   7.4025 26355.4
 12 10 2016  21 30  -15.5180 26135.6   3395.4   7.4022 26355.2
 12 10 2016  21 31  -15.5174 26135.7   3395.9   7.4032 26355.4
 12 10 2016  21 32  -15.5174 26135.4   3395.8   7.4030 26355.1
 12 10 2016  21 33  -15.5180 26135.2   3395.3   7.4020 26354.8
 12 10 2016  21 34  -15.5178 26134.5   3395.4   7.4024 26354.2
 12 10 2016  21 35  -15.5174 26134.4   3394.5   7.4004 26353.9
 12 10 2016  21 36  -15.5167 26134.4   3395.3   7.4023 26354.0
 12 10 2016  21 37  -15.5165 26134.0   3395.8   7.4034 26353.7
 12 10 2016  21 38  -15.5166 26133.8   3396.1   7.4042 26353.6
 12 10 2016  21 39  -15.5155 26133.8   3395.8   7.4035 26353.5
 12 10 2016  21 40  -15.5157 26133.2   3396.2   7.4045 26353.0
 12 10 2016  21 41  -15.5159 26133.2   3396.2   7.4045 26353.0
 12 10 2016  21 42  -15.5151 26133.3   3397.1   7.4064 26353.1
 12 10 2016  21 43  -15.5156 26133.4   3396.4   7.4049 26353.1
 12 10 2016  21 44  -15.5144 26134.0   3396.5   7.4049 26353.7
 12 10 2016  21 45  -15.5139 26134.1   3397.0   7.4060 26353.9
 12 10 2016  21 46  -15.5138 26133.7   3397.0   7.4062 26353.5
 12 10 2016  21 47  -15.5141 26133.5   3398.5   7.4095 26353.6
 12 10 2016  21 48  -15.5142 26133.3   3398.1   7.4086 26353.3
 12 10 2016  21 49  -15.5137 26133.5   3397.9   7.4081 26353.5
 12 10 2016  21 50  -15.5133 26133.4   3396.9   7.4060 26353.3
 12 10 2016  21 51  -15.5141 26133.0   3397.0   7.4063 26352.9
 12 10 2016  21 52  -15.5132 26133.1   3398.0   7.4084 26353.1
 12 10 2016  21 53  -15.5129 26133.2   3397.5   7.4073 26353.1
 12 10 2016  21 54  -15.5126 26133.1   3398.5   7.4095 26353.2
 12 10 2016  21 55  -15.5128 26133.2   3398.0   7.4085 26353.2
 12 10 2016  21 56  -15.5121 26133.1   3399.0   7.4106 26353.3
 12 10 2016  21 57  -15.5128 26133.1   3398.4   7.4093 26353.2
 12 10 2016  21 58  -15.5131 26132.9   3398.3   7.4091 26352.9
 12 10 2016  21 59  -15.5123 26132.8   3398.0   7.4085 26352.8
 12 10 2016  22 00  -15.5113 26133.0   3398.9   7.4104 26353.1
 12 10 2016  22 01  -15.5120 26132.6   3399.4   7.4115 26352.8
 12 10 2016  22 02  -15.5119 26132.7   3398.4   7.4094 26352.7
 12 10 2016  22 03  -15.5116 26132.9   3398.9   7.4104 26353.0
 12 10 2016  22 04  -15.5115 26132.6   3399.3   7.4113 26352.7
 12 10 2016  22 05  -15.5113 26132.7   3399.4   7.4116 26352.9
 12 10 2016  22 06  -15.5113 26133.0   3399.7   7.4122 26353.2
 12 10 2016  22 07  -15.5109 26133.3   3399.8   7.4122 26353.6
 12 10 2016  22 08  -15.5101 26134.5   3400.8   7.4141 26354.8
 12 10 2016  22 09  -15.5081 26139.3   3403.4   7.4184 26360.0
 12 10 2016  22 10  -15.5047 26146.1   3407.3   7.4247 26367.2
 12 10 2016  22 11  -15.4998 26154.4   3410.7   7.4298 26375.9
 12 10 2016  22 12  -15.4952 26161.6   3413.1   7.4328 26383.3
 12 10 2016  22 13  -15.4925 26163.6   3412.0   7.4301 26385.1
 12 10 2016  22 14  -15.4916 26162.4   3408.6   7.4231 26383.5
 12 10 2016  22 15  -15.4924 26159.1   3404.8   7.4157 26379.7
 12 10 2016  22 16  -15.4929 26156.5   3402.2   7.4110 26376.8
 12 10 2016  22 17  -15.4942 26154.8   3401.6   7.4101 26375.0
 12 10 2016  22 18  -15.4943 26154.4   3400.8   7.4085 26374.6
 12 10 2016  22 19  -15.4938 26154.8   3401.6   7.4100 26375.1
 12 10 2016  22 20  -15.4955 26153.5   3400.4   7.4079 26373.6
 12 10 2016  22 21  -15.4963 26152.3   3398.9   7.4051 26372.2
 12 10 2016  22 22  -15.4965 26150.8   3399.0   7.4057 26370.8
 12 10 2016  22 23  -15.4978 26150.3   3398.4   7.4044 26370.2
 12 10 2016  22 24  -15.4984 26149.3   3399.7   7.4076 26369.4
 12 10 2016  22 25  -15.4983 26148.8   3399.4   7.4070 26368.9
 12 10 2016  22 26  -15.4984 26149.0   3398.3   7.4046 26368.9
 12 10 2016  22 27  -15.4986 26148.4   3400.0   7.4085 26368.5
 12 10 2016  22 28  -15.4977 26149.2   3401.4   7.4113 26369.5
 12 10 2016  22 29  -15.4967 26150.7   3401.9   7.4118 26371.0
 12 10 2016  22 30  -15.4967 26152.1   3401.4   7.4104 26372.4
 12 10 2016  22 31  -15.4968 26151.3   3400.6   7.4089 26371.5
 12 10 2016  22 32  -15.4972 26150.6   3399.8   7.4074 26370.7
 12 10 2016  22 33  -15.4962 26151.3   3401.3   7.4105 26371.5
 12 10 2016  22 34  -15.4967 26151.5   3400.2   7.4081 26371.6
 12 10 2016  22 35  -15.4966 26151.2   3400.7   7.4092 26371.4
 12 10 2016  22 36  -15.4959 26151.5   3400.6   7.4089 26371.7
 12 10 2016  22 37  -15.4968 26151.1   3401.1   7.4101 26371.4
 12 10 2016  22 38  -15.4966 26151.1   3401.6   7.4111 26371.4
 12 10 2016  22 39  -15.4967 26151.5   3400.6   7.4089 26371.7
 12 10 2016  22 40  -15.4963 26151.3   3400.7   7.4090 26371.5
 12 10 2016  22 41  -15.4963 26151.4   3401.2   7.4101 26371.7
 12 10 2016  22 42  -15.4955 26152.1   3401.4   7.4105 26372.3
 12 10 2016  22 43  -15.4957 26152.8   3401.8   7.4110 26373.1
 12 10 2016  22 44  -15.4953 26153.0   3400.5   7.4082 26373.1
 12 10 2016  22 45  -15.4956 26151.7   3400.9   7.4095 26371.9
 12 10 2016  22 46  -15.4962 26150.4   3400.0   7.4079 26370.5
 12 10 2016  22 47  -15.4969 26149.6   3399.5   7.4070 26369.6
 12 10 2016  22 48  -15.4967 26149.8   3399.3   7.4066 26369.8
 12 10 2016  22 49  -15.4964 26150.2   3400.1   7.4082 26370.3
 12 10 2016  22 50  -15.4978 26150.5   3399.0   7.4056 26370.4
 12 10 2016  22 51  -15.4968 26151.0   3400.1   7.4080 26371.1
 12 10 2016  22 52  -15.4965 26151.0   3400.7   7.4092 26371.2
 12 10 2016  22 53  -15.4961 26151.5   3400.3   7.4082 26371.6
 12 10 2016  22 54  -15.4961 26151.7   3399.8   7.4071 26371.8
 12 10 2016  22 55  -15.4965 26151.5   3401.0   7.4097 26371.7
 12 10 2016  22 56  -15.4970 26151.4   3400.4   7.4086 26371.6
 12 10 2016  22 57  -15.4962 26151.7   3400.7   7.4090 26371.9
 12 10 2016  22 58  -15.4959 26152.0   3400.0   7.4075 26372.1
 12 10 2016  22 59  -15.4950 26151.9   3401.3   7.4103 26372.2
 12 10 2016  23 00  -15.4953 26152.1   3399.7   7.4068 26372.2
 12 10 2016  23 01  -15.4953 26152.0   3400.6   7.4086 26372.2
 12 10 2016  23 02  -15.4954 26152.0   3400.0   7.4074 26372.1
 12 10 2016  23 03  -15.4953 26151.9   3400.6   7.4088 26372.0
 12 10 2016  23 04  -15.4957 26151.9   3399.8   7.4071 26372.0
 12 10 2016  23 05  -15.4949 26152.1   3400.5   7.4085 26372.3
 12 10 2016  23 06  -15.4945 26152.2   3401.0   7.4095 26372.4
 12 10 2016  23 07  -15.4949 26152.2   3401.2   7.4099 26372.4
 12 10 2016  23 08  -15.4947 26152.3   3399.9   7.4072 26372.4
 12 10 2016  23 09  -15.4954 26152.1   3400.0   7.4074 26372.2
 12 10 2016  23 10  -15.4942 26152.6   3400.6   7.4086 26372.7
 12 10 2016  23 11  -15.4939 26153.1   3401.1   7.4095 26373.3
 12 10 2016  23 12  -15.4933 26153.7   3401.0   7.4091 26373.9
 12 10 2016  23 13  -15.4932 26153.8   3401.1   7.4093 26374.1
 12 10 2016  23 14  -15.4931 26154.1   3401.0   7.4090 26374.3
 12 10 2016  23 15  -15.4934 26154.1   3401.0   7.4091 26374.3
 12 10 2016  23 16  -15.4933 26153.9   3400.4   7.4077 26374.0
 12 10 2016  23 17  -15.4932 26153.6   3400.6   7.4083 26373.7
 12 10 2016  23 18  -15.4933 26153.8   3400.4   7.4078 26373.9
 12 10 2016  23 19  -15.4928 26154.3   3400.7   7.4082 26374.5
 12 10 2016  23 20  -15.4928 26154.7   3400.7   7.4083 26374.9
 12 10 2016  23 21  -15.4924 26155.3   3401.2   7.4091 26375.5
 12 10 2016  23 22  -15.4919 26155.8   3401.0   7.4086 26376.0
 12 10 2016  23 23  -15.4921 26155.6   3401.0   7.4086 26375.7
 12 10 2016  23 24  -15.4927 26154.6   3400.1   7.4068 26374.7
 12 10 2016  23 25  -15.4931 26153.5   3399.6   7.4061 26373.5
 12 10 2016  23 26  -15.4934 26153.2   3399.6   7.4062 26373.2
 12 10 2016  23 27  -15.4934 26153.3   3399.9   7.4068 26373.4
 12 10 2016  23 28  -15.4933 26154.2   3400.3   7.4074 26374.3
 12 10 2016  23 29  -15.4931 26155.2   3401.0   7.4087 26375.4
 12 10 2016  23 30  -15.4929 26155.2   3401.0   7.4087 26375.4
 12 10 2016  23 31  -15.4933 26155.2   3400.9   7.4084 26375.4
 12 10 2016  23 32  -15.4931 26155.3   3400.9   7.4085 26375.5
 12 10 2016  23 33  -15.4929 26155.9   3401.2   7.4088 26376.2
 12 10 2016  23 34  -15.4916 26157.0   3401.9   7.4102 26377.3
 12 10 2016  23 35  -15.4926 26157.7   3402.2   7.4106 26378.0
 12 10 2016  23 36  -15.4915 26158.6   3402.4   7.4108 26378.9
 12 10 2016  23 37  -15.4916 26158.7   3401.0   7.4078 26378.8
 12 10 2016  23 38  -15.4911 26158.7   3401.0   7.4076 26378.8
 12 10 2016  23 39  -15.4917 26157.1   3400.5   7.4070 26377.2
 12 10 2016  23 40  -15.4931 26156.1   3399.0   7.4041 26376.0
 12 10 2016  23 41  -15.4930 26155.2   3399.4   7.4052 26375.2
 12 10 2016  23 42  -15.4934 26154.6   3398.3   7.4030 26374.4
 12 10 2016  23 43  -15.4921 26154.4   3400.9   7.4087 26374.6
 12 10 2016  23 44  -15.4919 26154.9   3401.1   7.4089 26375.1
 12 10 2016  23 45  -15.4918 26155.0   3399.0   7.4045 26375.0
 12 10 2016  23 46  -15.4932 26153.7   3399.8   7.4064 26373.8
 12 10 2016  23 47  -15.4925 26152.4   3400.0   7.4073 26372.5
 12 10 2016  23 48  -15.4923 26151.9   3399.0   7.4054 26371.9
 12 10 2016  23 49  -15.4929 26151.7   3397.6   7.4024 26371.5
 12 10 2016  23 50  -15.4928 26151.3   3399.7   7.4069 26371.3
 12 10 2016  23 51  -15.4920 26151.2   3398.7   7.4048 26371.2
 12 10 2016  23 52  -15.4921 26151.4   3398.7   7.4049 26371.3
 12 10 2016  23 53  -15.4920 26151.4   3399.0   7.4055 26371.4
 12 10 2016  23 54  -15.4910 26151.5   3398.6   7.4045 26371.4
 12 10 2016  23 55  -15.4914 26151.1   3399.4   7.4064 26371.2
 12 10 2016  23 56  -15.4915 26151.1   3399.9   7.4074 26371.2
 12 10 2016  23 57  -15.4903 26151.4   3400.6   7.4088 26371.6
 12 10 2016  23 58  -15.4898 26151.6   3400.5   7.4085 26371.8
 12 10 2016  23 59  -15.4893 26152.2   3399.3   7.4058 26372.2
