Manaus - AM                    UNIVAP-03  <292> 1 Min. Reported data

 DD MM YYYY  HH MM   D(Deg)  H(nT)   Z(nT)   I(Deg)   F(nT)

 18 10 2016  00 00  -15.5114 26128.7   3400.6   7.4152 26349.0
 18 10 2016  00 01  -15.5111 26128.0   3401.6   7.4176 26348.5
 18 10 2016  00 02  -15.5111 26127.7   3400.4   7.4151 26348.1
 18 10 2016  00 03  -15.5111 26127.7   3403.0   7.4207 26348.4
 18 10 2016  00 04  -15.5117 26126.6   3401.9   7.4186 26347.1
 18 10 2016  00 05  -15.5121 26125.3   3401.1   7.4173 26345.8
 18 10 2016  00 06  -15.5132 26124.6   3401.1   7.4176 26345.0
 18 10 2016  00 07  -15.5137 26125.0   3401.9   7.4191 26345.6
 18 10 2016  00 08  -15.5143 26124.8   3401.8   7.4190 26345.3
 18 10 2016  00 09  -15.5151 26124.1   3401.6   7.4188 26344.6
 18 10 2016  00 10  -15.5156 26123.2   3401.3   7.4184 26343.7
 18 10 2016  00 11  -15.5160 26122.5   3401.4   7.4188 26343.0
 18 10 2016  00 12  -15.5165 26121.6   3401.1   7.4184 26342.1
 18 10 2016  00 13  -15.5171 26121.4   3401.7   7.4197 26342.0
 18 10 2016  00 14  -15.5169 26121.9   3401.7   7.4196 26342.4
 18 10 2016  00 15  -15.5170 26121.2   3402.9   7.4223 26341.9
 18 10 2016  00 16  -15.5153 26121.2   3402.2   7.4208 26341.8
 18 10 2016  00 17  -15.5157 26120.4   3402.4   7.4215 26341.1
 18 10 2016  00 18  -15.5166 26119.8   3401.0   7.4187 26340.3
 18 10 2016  00 19  -15.5165 26119.4   3402.3   7.4215 26340.1
 18 10 2016  00 20  -15.5165 26120.1   3401.8   7.4202 26340.7
 18 10 2016  00 21  -15.5152 26121.0   3401.7   7.4198 26341.5
 18 10 2016  00 22  -15.5142 26120.8   3402.7   7.4221 26341.5
 18 10 2016  00 23  -15.5131 26121.0   3403.5   7.4237 26341.8
 18 10 2016  00 24  -15.5120 26121.1   3405.1   7.4271 26342.1
 18 10 2016  00 25  -15.5129 26121.7   3402.8   7.4220 26342.4
 18 10 2016  00 26  -15.5115 26123.3   3404.8   7.4258 26344.3
 18 10 2016  00 27  -15.5097 26124.0   3406.7   7.4298 26345.2
 18 10 2016  00 28  -15.5088 26122.9   3404.2   7.4246 26343.8
 18 10 2016  00 29  -15.5108 26121.5   3403.5   7.4234 26342.3
 18 10 2016  00 30  -15.5118 26121.3   3402.5   7.4214 26342.0
 18 10 2016  00 31  -15.5120 26120.6   3401.8   7.4200 26341.2
 18 10 2016  00 32  -15.5119 26120.3   3402.7   7.4222 26341.0
 18 10 2016  00 33  -15.5130 26120.7   3401.1   7.4185 26341.2
 18 10 2016  00 34  -15.5131 26120.4   3403.2   7.4232 26341.2
 18 10 2016  00 35  -15.5113 26121.2   3403.3   7.4232 26342.0
 18 10 2016  00 36  -15.5110 26121.1   3403.2   7.4230 26341.9
 18 10 2016  00 37  -15.5114 26120.3   3403.1   7.4230 26341.1
 18 10 2016  00 38  -15.5116 26120.1   3402.5   7.4218 26340.8
 18 10 2016  00 39  -15.5105 26120.1   3403.4   7.4237 26340.9
 18 10 2016  00 40  -15.5117 26119.9   3401.8   7.4204 26340.5
 18 10 2016  00 41  -15.5088 26120.4   3403.5   7.4239 26341.2
 18 10 2016  00 42  -15.5094 26120.2   3402.8   7.4223 26340.9
 18 10 2016  00 43  -15.5100 26120.1   3402.7   7.4222 26340.8
 18 10 2016  00 44  -15.5096 26120.5   3402.6   7.4219 26341.2
 18 10 2016  00 45  -15.5095 26120.8   3402.1   7.4208 26341.4
 18 10 2016  00 46  -15.5100 26120.8   3403.6   7.4239 26341.6
 18 10 2016  00 47  -15.5110 26120.0   3401.5   7.4197 26340.5
 18 10 2016  00 48  -15.5095 26119.8   3401.1   7.4188 26340.3
 18 10 2016  00 49  -15.5091 26119.6   3402.8   7.4225 26340.3
 18 10 2016  00 50  -15.5104 26119.0   3401.9   7.4209 26339.6
 18 10 2016  00 51  -15.5093 26118.7   3403.9   7.4251 26339.5
 18 10 2016  00 52  -15.5102 26118.8   3402.9   7.4229 26339.5
 18 10 2016  00 53  -15.5108 26118.9   3402.6   7.4224 26339.6
 18 10 2016  00 54  -15.5088 26119.2   3403.1   7.4233 26340.0
 18 10 2016  00 55  -15.5092 26119.3   3403.9   7.4249 26340.2
 18 10 2016  00 56  -15.5082 26119.6   3404.4   7.4261 26340.5
 18 10 2016  00 57  -15.5083 26119.1   3404.1   7.4255 26340.0
 18 10 2016  00 58  -15.5097 26118.4   3401.3   7.4196 26339.0
 18 10 2016  00 59  -15.5105 26117.2   3401.4   7.4203 26337.8
 18 10 2016  01 00  -15.5100 26117.1   3402.2   7.4220 26337.8
 18 10 2016  01 01  -15.5097 26117.8   3403.5   7.4247 26338.6
 18 10 2016  01 02  -15.5088 26118.1   3404.1   7.4258 26339.0
 18 10 2016  01 03  -15.5086 26117.8   3403.8   7.4252 26338.7
 18 10 2016  01 04  -15.5094 26117.4   3404.9   7.4276 26338.4
 18 10 2016  01 05  -15.5094 26118.0   3403.2   7.4239 26338.8
 18 10 2016  01 06  -15.5099 26118.1   3403.5   7.4245 26339.0
 18 10 2016  01 07  -15.5089 26118.8   3403.4   7.4240 26339.6
 18 10 2016  01 08  -15.5089 26119.1   3404.4   7.4262 26340.1
 18 10 2016  01 09  -15.5083 26120.3   3403.0   7.4227 26341.1
 18 10 2016  01 10  -15.5087 26120.3   3404.8   7.4267 26341.3
 18 10 2016  01 11  -15.5073 26121.3   3403.9   7.4244 26342.2
 18 10 2016  01 12  -15.5075 26122.0   3403.3   7.4231 26342.8
 18 10 2016  01 13  -15.5071 26122.2   3404.6   7.4256 26343.1
 18 10 2016  01 14  -15.5064 26121.9   3403.3   7.4230 26342.7
 18 10 2016  01 15  -15.5073 26121.2   3403.1   7.4227 26341.9
 18 10 2016  01 16  -15.5074 26120.9   3404.2   7.4251 26341.8
 18 10 2016  01 17  -15.5075 26121.2   3404.8   7.4265 26342.2
 18 10 2016  01 18  -15.5079 26120.9   3404.4   7.4256 26341.8
 18 10 2016  01 19  -15.5077 26120.7   3403.4   7.4236 26341.5
 18 10 2016  01 20  -15.5078 26121.5   3404.7   7.4260 26342.4
 18 10 2016  01 21  -15.5086 26120.3   3403.9   7.4247 26341.2
 18 10 2016  01 22  -15.5070 26121.7   3403.9   7.4243 26342.5
 18 10 2016  01 23  -15.5079 26121.5   3404.4   7.4254 26342.4
 18 10 2016  01 24  -15.5076 26122.8   3404.3   7.4248 26343.7
 18 10 2016  01 25  -15.5073 26122.7   3405.1   7.4266 26343.7
 18 10 2016  01 26  -15.5059 26124.5   3407.2   7.4307 26345.8
 18 10 2016  01 27  -15.5068 26125.1   3404.7   7.4251 26346.0
 18 10 2016  01 28  -15.5064 26125.3   3405.9   7.4276 26346.4
 18 10 2016  01 29  -15.5064 26125.3   3405.8   7.4274 26346.3
 18 10 2016  01 30  -15.5062 26125.5   3405.5   7.4268 26346.5
 18 10 2016  01 31  -15.5064 26126.0   3406.4   7.4284 26347.2
 18 10 2016  01 32  -15.5062 26126.7   3405.0   7.4253 26347.6
 18 10 2016  01 33  -15.5071 26126.9   3403.9   7.4228 26347.7
 18 10 2016  01 34  -15.5048 26127.8   3405.3   7.4257 26348.8
 18 10 2016  01 35  -15.5062 26127.6   3404.4   7.4237 26348.5
 18 10 2016  01 36  -15.5056 26127.8   3405.5   7.4261 26348.8
 18 10 2016  01 37  -15.5064 26127.4   3404.4   7.4238 26348.3
 18 10 2016  01 38  -15.5054 26128.1   3405.1   7.4252 26349.0
 18 10 2016  01 39  -15.5062 26128.6   3404.8   7.4243 26349.5
 18 10 2016  01 40  -15.5054 26129.2   3405.6   7.4260 26350.2
 18 10 2016  01 41  -15.5057 26129.5   3405.2   7.4249 26350.5
 18 10 2016  01 42  -15.5068 26129.7   3404.8   7.4240 26350.6
 18 10 2016  01 43  -15.5057 26130.3   3405.4   7.4252 26351.2
 18 10 2016  01 44  -15.5054 26130.5   3406.6   7.4276 26351.6
 18 10 2016  01 45  -15.5058 26131.6   3406.0   7.4261 26352.7
 18 10 2016  01 46  -15.5076 26131.3   3404.9   7.4238 26352.2
 18 10 2016  01 47  -15.5062 26131.7   3406.9   7.4280 26352.9
 18 10 2016  01 48  -15.5076 26131.9   3403.3   7.4201 26352.6
 18 10 2016  01 49  -15.5069 26131.5   3405.4   7.4248 26352.4
 18 10 2016  01 50  -15.5071 26131.7   3403.9   7.4215 26352.5
 18 10 2016  01 51  -15.5078 26131.3   3403.5   7.4207 26352.0
 18 10 2016  01 52  -15.5067 26131.4   3404.5   7.4229 26352.3
 18 10 2016  01 53  -15.5066 26131.6   3404.1   7.4220 26352.4
 18 10 2016  01 54  -15.5081 26130.9   3403.8   7.4215 26351.6
 18 10 2016  01 55  -15.5075 26130.8   3405.0   7.4242 26351.7
 18 10 2016  01 56  -15.5071 26130.5   3404.9   7.4240 26351.4
 18 10 2016  01 57  -15.5078 26130.0   3403.9   7.4221 26350.8
 18 10 2016  01 58  -15.5084 26129.5   3404.8   7.4242 26350.4
 18 10 2016  01 59  -15.5081 26129.5   3404.9   7.4243 26350.4
 18 10 2016  02 00  -15.5086 26129.3   3403.8   7.4220 26350.0
 18 10 2016  02 01  -15.5072 26129.3   3404.5   7.4234 26350.2
 18 10 2016  02 02  -15.5085 26128.5   3404.8   7.4244 26349.4
 18 10 2016  02 03  -15.5084 26128.6   3404.4   7.4235 26349.4
 18 10 2016  02 04  -15.5077 26129.0   3405.2   7.4250 26349.9
 18 10 2016  02 05  -15.5085 26129.6   3403.2   7.4205 26350.3
 18 10 2016  02 06  -15.5092 26129.3   3403.6   7.4216 26350.0
 18 10 2016  02 07  -15.5083 26129.3   3404.0   7.4223 26350.0
 18 10 2016  02 08  -15.5094 26128.6   3403.3   7.4211 26349.3
 18 10 2016  02 09  -15.5095 26128.1   3403.2   7.4210 26348.8
 18 10 2016  02 10  -15.5082 26127.9   3404.0   7.4228 26348.7
 18 10 2016  02 11  -15.5082 26127.4   3404.1   7.4231 26348.2
 18 10 2016  02 12  -15.5087 26126.9   3404.5   7.4241 26347.7
 18 10 2016  02 13  -15.5097 26126.4   3404.6   7.4244 26347.3
 18 10 2016  02 14  -15.5105 26125.6   3403.0   7.4212 26346.3
 18 10 2016  02 15  -15.5098 26125.3   3402.9   7.4211 26346.0
 18 10 2016  02 16  -15.5100 26125.0   3402.9   7.4212 26345.7
 18 10 2016  02 17  -15.5094 26125.1   3402.2   7.4198 26345.7
 18 10 2016  02 18  -15.5085 26125.6   3402.6   7.4205 26346.2
 18 10 2016  02 19  -15.5095 26125.7   3404.6   7.4247 26346.6
 18 10 2016  02 20  -15.5097 26126.9   3403.3   7.4217 26347.6
 18 10 2016  02 21  -15.5073 26128.3   3405.0   7.4248 26349.3
 18 10 2016  02 22  -15.5073 26129.1   3403.7   7.4219 26349.9
 18 10 2016  02 23  -15.5061 26129.4   3405.5   7.4255 26350.4
 18 10 2016  02 24  -15.5061 26130.0   3405.9   7.4263 26351.1
 18 10 2016  02 25  -15.5059 26130.5   3404.4   7.4229 26351.3
 18 10 2016  02 26  -15.5062 26130.2   3406.5   7.4275 26351.3
 18 10 2016  02 27  -15.5070 26130.6   3403.7   7.4214 26351.4
 18 10 2016  02 28  -15.5059 26131.5   3404.3   7.4225 26352.3
 18 10 2016  02 29  -15.5052 26132.3   3404.5   7.4227 26353.2
 18 10 2016  02 30  -15.5066 26132.1   3404.2   7.4220 26352.9
 18 10 2016  02 31  -15.5053 26132.8   3404.7   7.4230 26353.7
 18 10 2016  02 32  -15.5063 26132.7   3404.0   7.4215 26353.5
 18 10 2016  02 33  -15.5063 26132.5   3404.9   7.4234 26353.4
 18 10 2016  02 34  -15.5052 26132.9   3406.0   7.4257 26354.0
 18 10 2016  02 35  -15.5059 26132.9   3405.5   7.4247 26353.8
 18 10 2016  02 36  -15.5052 26133.5   3403.4   7.4199 26354.2
 18 10 2016  02 37  -15.5058 26133.5   3403.5   7.4202 26354.2
 18 10 2016  02 38  -15.5053 26133.3   3404.2   7.4217 26354.1
 18 10 2016  02 39  -15.5059 26133.0   3404.6   7.4228 26353.8
 18 10 2016  02 40  -15.5061 26132.7   3403.8   7.4211 26353.5
 18 10 2016  02 41  -15.5051 26132.7   3404.3   7.4221 26353.5
 18 10 2016  02 42  -15.5047 26132.7   3405.0   7.4237 26353.6
 18 10 2016  02 43  -15.5069 26132.7   3403.4   7.4202 26353.4
 18 10 2016  02 44  -15.5060 26132.8   3403.3   7.4200 26353.5
 18 10 2016  02 45  -15.5054 26132.6   3404.6   7.4228 26353.5
 18 10 2016  02 46  -15.5057 26132.9   3404.8   7.4232 26353.8
 18 10 2016  02 47  -15.5056 26132.7   3404.5   7.4226 26353.6
 18 10 2016  02 48  -15.5059 26132.5   3404.6   7.4229 26353.4
 18 10 2016  02 49  -15.5063 26132.1   3404.4   7.4224 26352.9
 18 10 2016  02 50  -15.5067 26131.8   3404.0   7.4216 26352.6
 18 10 2016  02 51  -15.5066 26131.7   3404.4   7.4225 26352.5
 18 10 2016  02 52  -15.5066 26131.1   3404.0   7.4218 26351.9
 18 10 2016  02 53  -15.5070 26129.9   3403.6   7.4214 26350.7
 18 10 2016  02 54  -15.5071 26129.6   3403.6   7.4216 26350.3
 18 10 2016  02 55  -15.5080 26129.0   3403.3   7.4211 26349.7
 18 10 2016  02 56  -15.5081 26128.5   3403.5   7.4215 26349.2
 18 10 2016  02 57  -15.5080 26128.1   3403.5   7.4217 26348.8
 18 10 2016  02 58  -15.5091 26127.5   3404.0   7.4229 26348.3
 18 10 2016  02 59  -15.5084 26127.7   3403.9   7.4227 26348.5
 18 10 2016  03 00  -15.5090 26127.5   3403.7   7.4224 26348.3
 18 10 2016  03 01  -15.5090 26127.3   3403.9   7.4228 26348.1
 18 10 2016  03 02  -15.5083 26126.7   3403.6   7.4223 26347.5
 18 10 2016  03 03  -15.5070 26126.2   3403.8   7.4229 26347.0
 18 10 2016  03 04  -15.5063 26125.9   3404.4   7.4243 26346.8
 18 10 2016  03 05  -15.5080 26125.1   3403.6   7.4226 26345.9
 18 10 2016  03 06  -15.5070 26125.2   3404.4   7.4245 26346.1
 18 10 2016  03 07  -15.5088 26124.7   3403.0   7.4216 26345.5
 18 10 2016  03 08  -15.5086 26124.1   3404.4   7.4247 26345.0
 18 10 2016  03 09  -15.5078 26124.0   3403.6   7.4230 26344.8
 18 10 2016  03 10  -15.5081 26124.0   3404.2   7.4243 26344.9
 18 10 2016  03 11  -15.5080 26124.4   3403.9   7.4235 26345.2
 18 10 2016  03 12  -15.5077 26124.6   3403.8   7.4233 26345.4
 18 10 2016  03 13  -15.5069 26124.2   3404.2   7.4242 26345.0
 18 10 2016  03 14  -15.5065 26123.9   3405.5   7.4271 26345.0
 18 10 2016  03 15  -15.5085 26123.7   3403.2   7.4222 26344.5
 18 10 2016  03 16  -15.5080 26123.6   3404.5   7.4251 26344.5
 18 10 2016  03 17  -15.5101 26123.3   3402.1   7.4199 26343.9
 18 10 2016  03 18  -15.5102 26123.3   3402.4   7.4206 26343.9
 18 10 2016  03 19  -15.5095 26123.5   3403.5   7.4229 26344.3
 18 10 2016  03 20  -15.5082 26123.5   3403.8   7.4237 26344.3
 18 10 2016  03 21  -15.5096 26122.9   3402.1   7.4201 26343.5
 18 10 2016  03 22  -15.5103 26122.7   3402.7   7.4214 26343.4
 18 10 2016  03 23  -15.5098 26122.5   3404.3   7.4249 26343.4
 18 10 2016  03 24  -15.5098 26122.1   3405.4   7.4274 26343.1
 18 10 2016  03 25  -15.5106 26122.3   3402.6   7.4213 26343.0
 18 10 2016  03 26  -15.5095 26122.2   3404.9   7.4264 26343.1
 18 10 2016  03 27  -15.5099 26122.1   3404.4   7.4253 26343.0
 18 10 2016  03 28  -15.5113 26122.1   3402.2   7.4206 26342.7
 18 10 2016  03 29  -15.5103 26121.8   3403.0   7.4225 26342.5
 18 10 2016  03 30  -15.5112 26121.0   3403.2   7.4230 26341.8
 18 10 2016  03 31  -15.5116 26121.0   3403.1   7.4228 26341.7
 18 10 2016  03 32  -15.5107 26121.3   3403.7   7.4240 26342.1
 18 10 2016  03 33  -15.5118 26120.9   3403.0   7.4226 26341.7
 18 10 2016  03 34  -15.5108 26120.7   3403.4   7.4235 26341.5
 18 10 2016  03 35  -15.5110 26120.0   3403.2   7.4233 26340.8
 18 10 2016  03 36  -15.5097 26119.6   3405.2   7.4277 26340.6
 18 10 2016  03 37  -15.5091 26119.7   3405.0   7.4273 26340.7
 18 10 2016  03 38  -15.5077 26120.0   3404.9   7.4271 26341.0
 18 10 2016  03 39  -15.5084 26120.1   3402.9   7.4227 26340.8
 18 10 2016  03 40  -15.5094 26119.5   3405.0   7.4273 26340.5
 18 10 2016  03 41  -15.5082 26119.9   3405.8   7.4289 26341.0
 18 10 2016  03 42  -15.5099 26119.7   3403.0   7.4230 26340.5
 18 10 2016  03 43  -15.5080 26119.6   3404.6   7.4264 26340.6
 18 10 2016  03 44  -15.5074 26119.6   3404.4   7.4261 26340.5
 18 10 2016  03 45  -15.5075 26119.1   3405.7   7.4289 26340.2
 18 10 2016  03 46  -15.5074 26119.4   3404.4   7.4261 26340.3
 18 10 2016  03 47  -15.5081 26119.5   3402.5   7.4220 26340.2
 18 10 2016  03 48  -15.5086 26119.2   3402.5   7.4220 26339.9
 18 10 2016  03 49  -15.5082 26119.0   3402.0   7.4211 26339.6
 18 10 2016  03 50  -15.5065 26119.0   3403.3   7.4237 26339.8
 18 10 2016  03 51  -15.5068 26118.1   3404.0   7.4255 26339.0
 18 10 2016  03 52  -15.5066 26117.4   3402.0   7.4213 26338.0
 18 10 2016  03 53  -15.5050 26117.1   3402.4   7.4224 26337.8
 18 10 2016  03 54  -15.5043 26117.6   3404.1   7.4259 26338.5
 18 10 2016  03 55  -15.5069 26117.4   3402.5   7.4226 26338.1
 18 10 2016  03 56  -15.5072 26116.9   3402.7   7.4230 26337.6
 18 10 2016  03 57  -15.5042 26116.7   3404.8   7.4276 26337.7
 18 10 2016  03 58  -15.5036 26116.4   3405.1   7.4285 26337.4
 18 10 2016  03 59  -15.5047 26116.8   3402.5   7.4226 26337.5
 18 10 2016  04 00  -15.5052 26117.2   3404.1   7.4261 26338.1
 18 10 2016  04 01  -15.5052 26117.7   3404.6   7.4269 26338.6
 18 10 2016  04 02  -15.5063 26118.1   3403.9   7.4253 26339.0
 18 10 2016  04 03  -15.5064 26118.4   3403.7   7.4248 26339.2
 18 10 2016  04 04  -15.5064 26118.6   3404.4   7.4264 26339.5
 18 10 2016  04 05  -15.5071 26119.0   3403.7   7.4246 26339.9
 18 10 2016  04 06  -15.5081 26119.2   3403.8   7.4247 26340.1
 18 10 2016  04 07  -15.5082 26119.3   3404.8   7.4270 26340.3
 18 10 2016  04 08  -15.5077 26119.9   3404.1   7.4253 26340.7
 18 10 2016  04 09  -15.5078 26119.9   3403.8   7.4245 26340.8
 18 10 2016  04 10  -15.5092 26119.6   3404.1   7.4254 26340.5
 18 10 2016  04 11  -15.5097 26119.7   3402.9   7.4228 26340.5
 18 10 2016  04 12  -15.5101 26119.7   3402.7   7.4223 26340.4
 18 10 2016  04 13  -15.5089 26120.0   3402.5   7.4218 26340.6
 18 10 2016  04 14  -15.5088 26120.0   3402.4   7.4216 26340.7
 18 10 2016  04 15  -15.5097 26120.0   3401.5   7.4197 26340.5
 18 10 2016  04 16  -15.5096 26119.5   3402.0   7.4209 26340.1
 18 10 2016  04 17  -15.5101 26118.3   3403.4   7.4242 26339.1
 18 10 2016  04 18  -15.5098 26118.3   3402.0   7.4212 26338.9
 18 10 2016  04 19  -15.5109 26117.6   3400.4   7.4180 26338.0
 18 10 2016  04 20  -15.5106 26117.1   3402.5   7.4226 26337.8
 18 10 2016  04 21  -15.5086 26117.4   3403.7   7.4250 26338.3
 18 10 2016  04 22  -15.5102 26117.5   3401.9   7.4211 26338.1
 18 10 2016  04 23  -15.5095 26118.3   3402.7   7.4228 26339.0
 18 10 2016  04 24  -15.5112 26118.8   3401.6   7.4202 26339.4
 18 10 2016  04 25  -15.5102 26119.1   3403.8   7.4249 26340.0
 18 10 2016  04 26  -15.5104 26119.3   3402.6   7.4222 26340.0
 18 10 2016  04 27  -15.5095 26119.4   3403.5   7.4242 26340.2
 18 10 2016  04 28  -15.5096 26119.3   3402.9   7.4229 26340.1
 18 10 2016  04 29  -15.5095 26120.1   3403.3   7.4235 26340.8
 18 10 2016  04 30  -15.5100 26121.1   3404.1   7.4249 26342.0
 18 10 2016  04 31  -15.5101 26121.8   3404.3   7.4251 26342.7
 18 10 2016  04 32  -15.5100 26121.8   3403.7   7.4238 26342.6
 18 10 2016  04 33  -15.5107 26121.9   3403.3   7.4229 26342.7
 18 10 2016  04 34  -15.5103 26122.1   3403.4   7.4232 26342.9
 18 10 2016  04 35  -15.5102 26122.5   3403.6   7.4235 26343.3
 18 10 2016  04 36  -15.5100 26122.9   3403.7   7.4235 26343.7
 18 10 2016  04 37  -15.5108 26123.3   3402.9   7.4218 26344.0
 18 10 2016  04 38  -15.5113 26123.8   3402.6   7.4210 26344.4
 18 10 2016  04 39  -15.5120 26123.9   3404.8   7.4258 26344.8
 18 10 2016  04 40  -15.5116 26124.5   3405.4   7.4269 26345.5
 18 10 2016  04 41  -15.5117 26124.9   3405.6   7.4271 26346.0
 18 10 2016  04 42  -15.5115 26125.3   3405.8   7.4275 26346.3
 18 10 2016  04 43  -15.5111 26125.5   3404.6   7.4248 26346.4
 18 10 2016  04 44  -15.5126 26125.3   3402.2   7.4196 26345.9
 18 10 2016  04 45  -15.5118 26125.4   3403.0   7.4213 26346.1
 18 10 2016  04 46  -15.5129 26124.6   3401.9   7.4192 26345.2
 18 10 2016  04 47  -15.5131 26123.5   3402.2   7.4201 26344.1
 18 10 2016  04 48  -15.5132 26122.3   3402.7   7.4216 26343.0
 18 10 2016  04 49  -15.5117 26122.1   3402.3   7.4207 26342.7
 18 10 2016  04 50  -15.5120 26121.5   3402.0   7.4204 26342.1
 18 10 2016  04 51  -15.5119 26121.1   3401.6   7.4195 26341.7
 18 10 2016  04 52  -15.5122 26120.4   3402.3   7.4213 26341.0
 18 10 2016  04 53  -15.5120 26119.8   3401.8   7.4203 26340.4
 18 10 2016  04 54  -15.5123 26119.1   3401.6   7.4201 26339.7
 18 10 2016  04 55  -15.5124 26118.2   3401.3   7.4196 26338.8
 18 10 2016  04 56  -15.5131 26117.4   3401.3   7.4200 26338.0
 18 10 2016  04 57  -15.5112 26117.7   3401.7   7.4208 26338.3
 18 10 2016  04 58  -15.5109 26117.1   3403.3   7.4243 26337.9
 18 10 2016  04 59  -15.5125 26116.7   3401.9   7.4215 26337.3
 18 10 2016  05 00  -15.5113 26117.4   3401.0   7.4193 26337.9
 18 10 2016  05 01  -15.5116 26117.1   3400.6   7.4186 26337.5
 18 10 2016  05 02  -15.5105 26117.0   3401.9   7.4213 26337.6
 18 10 2016  05 03  -15.5113 26116.9   3401.0   7.4194 26337.4
 18 10 2016  05 04  -15.5117 26116.8   3400.9   7.4192 26337.3
 18 10 2016  05 05  -15.5114 26116.7   3402.6   7.4230 26337.5
 18 10 2016  05 06  -15.5114 26117.0   3403.2   7.4241 26337.8
 18 10 2016  05 07  -15.5132 26117.0   3402.0   7.4216 26337.6
 18 10 2016  05 08  -15.5122 26117.4   3403.7   7.4251 26338.3
 18 10 2016  05 09  -15.5124 26117.6   3403.5   7.4247 26338.5
 18 10 2016  05 10  -15.5132 26118.1   3402.4   7.4221 26338.8
 18 10 2016  05 11  -15.5139 26118.7   3403.1   7.4234 26339.4
 18 10 2016  05 12  -15.5134 26119.4   3404.2   7.4257 26340.3
 18 10 2016  05 13  -15.5152 26119.6   3403.0   7.4231 26340.4
 18 10 2016  05 14  -15.5159 26119.9   3402.6   7.4221 26340.6
 18 10 2016  05 15  -15.5163 26120.5   3403.3   7.4234 26341.3
 18 10 2016  05 16  -15.5154 26121.0   3404.1   7.4250 26341.9
 18 10 2016  05 17  -15.5158 26121.1   3402.9   7.4224 26341.8
 18 10 2016  05 18  -15.5152 26121.8   3404.2   7.4249 26342.7
 18 10 2016  05 19  -15.5149 26121.8   3403.8   7.4242 26342.6
 18 10 2016  05 20  -15.5160 26122.3   3403.3   7.4228 26343.0
 18 10 2016  05 21  -15.5160 26121.4   3402.3   7.4209 26342.1
 18 10 2016  05 22  -15.5142 26121.7   3403.9   7.4244 26342.6
 18 10 2016  05 23  -15.5146 26121.5   3403.5   7.4235 26342.3
 18 10 2016  05 24  -15.5142 26121.4   3402.3   7.4211 26342.1
 18 10 2016  05 25  -15.5135 26121.7   3402.9   7.4221 26342.4
 18 10 2016  05 26  -15.5128 26121.3   3403.2   7.4228 26342.1
 18 10 2016  05 27  -15.5127 26121.4   3402.5   7.4215 26342.1
 18 10 2016  05 28  -15.5136 26120.5   3402.3   7.4211 26341.2
 18 10 2016  05 29  -15.5120 26120.4   3403.2   7.4232 26341.1
 18 10 2016  05 30  -15.5119 26119.9   3402.7   7.4222 26340.6
 18 10 2016  05 31  -15.5129 26119.4   3402.5   7.4219 26340.1
 18 10 2016  05 32  -15.5130 26119.2   3401.5   7.4199 26339.8
 18 10 2016  05 33  -15.5121 26119.1   3402.1   7.4212 26339.7
 18 10 2016  05 34  -15.5129 26118.8   3400.9   7.4186 26339.3
 18 10 2016  05 35  -15.5136 26118.0   3402.1   7.4214 26338.6
 18 10 2016  05 36  -15.5131 26117.5   3402.8   7.4232 26338.2
 18 10 2016  05 37  -15.5135 26117.4   3400.2   7.4177 26337.8
 18 10 2016  05 38  -15.5136 26116.8   3402.5   7.4227 26337.5
 18 10 2016  05 39  -15.5140 26116.7   3400.9   7.4192 26337.2
 18 10 2016  05 40  -15.5127 26116.9   3401.3   7.4200 26337.5
 18 10 2016  05 41  -15.5131 26117.3   3400.7   7.4186 26337.8
 18 10 2016  05 42  -15.5122 26118.2   3401.9   7.4210 26338.8
 18 10 2016  05 43  -15.5127 26118.6   3401.7   7.4204 26339.2
 18 10 2016  05 44  -15.5114 26119.1   3403.9   7.4251 26340.0
 18 10 2016  05 45  -15.5109 26119.8   3402.8   7.4225 26340.5
 18 10 2016  05 46  -15.5109 26119.5   3404.1   7.4254 26340.4
 18 10 2016  05 47  -15.5123 26119.5   3403.1   7.4231 26340.3
 18 10 2016  05 48  -15.5103 26120.5   3404.2   7.4253 26341.4
 18 10 2016  05 49  -15.5086 26121.3   3404.5   7.4257 26342.3
 18 10 2016  05 50  -15.5100 26121.3   3404.6   7.4259 26342.2
 18 10 2016  05 51  -15.5087 26122.5   3403.0   7.4222 26343.2
 18 10 2016  05 52  -15.5071 26122.9   3405.3   7.4270 26343.9
 18 10 2016  05 53  -15.5083 26122.3   3404.3   7.4249 26343.2
 18 10 2016  05 54  -15.5078 26121.8   3404.2   7.4249 26342.7
 18 10 2016  05 55  -15.5081 26121.2   3402.6   7.4216 26341.9
 18 10 2016  05 56  -15.5085 26119.9   3403.6   7.4243 26340.7
 18 10 2016  05 57  -15.5090 26119.5   3401.4   7.4195 26340.1
 18 10 2016  05 58  -15.5091 26119.3   3401.8   7.4205 26339.9
 18 10 2016  05 59  -15.5094 26118.8   3402.1   7.4212 26339.5
 18 10 2016  06 00  -15.5096 26118.5   3402.1   7.4214 26339.2
 18 10 2016  06 01  -15.5101 26118.6   3401.6   7.4202 26339.1
 18 10 2016  06 02  -15.5097 26118.9   3401.6   7.4203 26339.4
 18 10 2016  06 03  -15.5083 26119.2   3403.7   7.4247 26340.1
 18 10 2016  06 04  -15.5081 26119.8   3403.2   7.4233 26340.6
 18 10 2016  06 05  -15.5072 26120.3   3402.9   7.4226 26341.0
 18 10 2016  06 06  -15.5068 26120.6   3403.6   7.4239 26341.4
 18 10 2016  06 07  -15.5073 26121.4   3402.5   7.4215 26342.0
 18 10 2016  06 08  -15.5064 26121.6   3403.7   7.4240 26342.4
 18 10 2016  06 09  -15.5079 26121.2   3403.6   7.4239 26342.0
 18 10 2016  06 10  -15.5075 26121.2   3404.1   7.4249 26342.1
 18 10 2016  06 11  -15.5071 26121.5   3402.9   7.4221 26342.2
 18 10 2016  06 12  -15.5067 26121.4   3402.5   7.4215 26342.1
 18 10 2016  06 13  -15.5065 26121.1   3404.3   7.4253 26342.0
 18 10 2016  06 14  -15.5075 26121.3   3402.1   7.4206 26341.9
 18 10 2016  06 15  -15.5072 26121.1   3402.9   7.4224 26341.9
 18 10 2016  06 16  -15.5077 26120.8   3401.0   7.4182 26341.3
 18 10 2016  06 17  -15.5058 26120.6   3402.6   7.4217 26341.3
 18 10 2016  06 18  -15.5061 26120.0   3402.7   7.4223 26340.7
 18 10 2016  06 19  -15.5052 26120.0   3402.1   7.4209 26340.6
 18 10 2016  06 20  -15.5047 26119.6   3403.4   7.4240 26340.4
 18 10 2016  06 21  -15.5039 26119.4   3403.6   7.4244 26340.3
 18 10 2016  06 22  -15.5050 26118.8   3403.5   7.4244 26339.7
 18 10 2016  06 23  -15.5040 26119.0   3403.1   7.4235 26339.8
 18 10 2016  06 24  -15.5044 26119.1   3401.1   7.4191 26339.6
 18 10 2016  06 25  -15.5055 26118.5   3401.6   7.4202 26339.1
 18 10 2016  06 26  -15.5056 26118.5   3403.0   7.4233 26339.3
 18 10 2016  06 27  -15.5058 26118.9   3401.6   7.4203 26339.4
 18 10 2016  06 28  -15.5063 26118.6   3402.7   7.4226 26339.3
 18 10 2016  06 29  -15.5062 26118.9   3402.6   7.4223 26339.6
 18 10 2016  06 30  -15.5057 26119.4   3401.7   7.4202 26339.9
 18 10 2016  06 31  -15.5059 26119.1   3402.9   7.4228 26339.8
 18 10 2016  06 32  -15.5057 26119.0   3403.4   7.4240 26339.8
 18 10 2016  06 33  -15.5061 26119.3   3402.6   7.4222 26340.0
 18 10 2016  06 34  -15.5069 26119.0   3404.1   7.4256 26339.9
 18 10 2016  06 35  -15.5072 26119.5   3402.2   7.4213 26340.1
 18 10 2016  06 36  -15.5070 26119.0   3402.3   7.4216 26339.6
 18 10 2016  06 37  -15.5087 26117.9   3400.5   7.4180 26338.4
 18 10 2016  06 38  -15.5084 26117.8   3400.5   7.4181 26338.3
 18 10 2016  06 39  -15.5097 26117.3   3400.5   7.4182 26337.7
 18 10 2016  06 40  -15.5098 26116.7   3401.9   7.4214 26337.3
 18 10 2016  06 41  -15.5096 26116.3   3402.9   7.4237 26337.0
 18 10 2016  06 42  -15.5102 26116.1   3402.1   7.4219 26336.8
 18 10 2016  06 43  -15.5103 26116.3   3401.4   7.4206 26336.9
 18 10 2016  06 44  -15.5101 26116.2   3402.0   7.4217 26336.8
 18 10 2016  06 45  -15.5084 26116.6   3403.5   7.4249 26337.4
 18 10 2016  06 46  -15.5086 26116.4   3403.8   7.4256 26337.3
 18 10 2016  06 47  -15.5091 26116.1   3402.1   7.4221 26336.8
 18 10 2016  06 48  -15.5090 26115.6   3402.9   7.4240 26336.4
 18 10 2016  06 49  -15.5093 26115.6   3402.1   7.4223 26336.3
 18 10 2016  06 50  -15.5086 26116.0   3402.7   7.4234 26336.8
 18 10 2016  06 51  -15.5081 26116.7   3401.9   7.4215 26337.3
 18 10 2016  06 52  -15.5066 26116.8   3403.3   7.4244 26337.6
 18 10 2016  06 53  -15.5073 26116.6   3403.0   7.4237 26337.4
 18 10 2016  06 54  -15.5065 26117.0   3403.1   7.4239 26337.7
 18 10 2016  06 55  -15.5060 26117.3   3403.0   7.4237 26338.1
 18 10 2016  06 56  -15.5069 26117.1   3403.1   7.4240 26337.9
 18 10 2016  06 57  -15.5070 26117.0   3403.3   7.4245 26337.8
 18 10 2016  06 58  -15.5074 26117.0   3403.9   7.4257 26337.9
 18 10 2016  06 59  -15.5066 26118.0   3403.5   7.4245 26338.8
 18 10 2016  07 00  -15.5056 26118.4   3404.3   7.4262 26339.4
 18 10 2016  07 01  -15.5067 26118.5   3404.4   7.4263 26339.4
 18 10 2016  07 02  -15.5067 26119.3   3403.5   7.4242 26340.1
 18 10 2016  07 03  -15.5072 26119.6   3403.7   7.4244 26340.5
 18 10 2016  07 04  -15.5083 26119.7   3402.7   7.4224 26340.4
 18 10 2016  07 05  -15.5078 26120.3   3404.1   7.4251 26341.1
 18 10 2016  07 06  -15.5085 26120.7   3403.3   7.4234 26341.4
 18 10 2016  07 07  -15.5096 26120.7   3403.5   7.4237 26341.5
 18 10 2016  07 08  -15.5097 26120.7   3404.0   7.4248 26341.5
 18 10 2016  07 09  -15.5094 26120.8   3404.0   7.4249 26341.7
 18 10 2016  07 10  -15.5088 26121.1   3402.7   7.4219 26341.8
 18 10 2016  07 11  -15.5089 26120.7   3404.4   7.4256 26341.6
 18 10 2016  07 12  -15.5096 26120.1   3404.4   7.4258 26341.0
 18 10 2016  07 13  -15.5094 26119.9   3404.0   7.4250 26340.8
 18 10 2016  07 14  -15.5104 26119.9   3401.4   7.4194 26340.4
 18 10 2016  07 15  -15.5112 26119.6   3401.2   7.4192 26340.1
 18 10 2016  07 16  -15.5101 26119.4   3404.2   7.4256 26340.3
 18 10 2016  07 17  -15.5109 26119.3   3403.7   7.4245 26340.1
 18 10 2016  07 18  -15.5113 26119.6   3401.5   7.4198 26340.2
 18 10 2016  07 19  -15.5100 26119.9   3402.4   7.4217 26340.5
 18 10 2016  07 20  -15.5111 26119.6   3401.6   7.4200 26340.2
 18 10 2016  07 21  -15.5100 26119.7   3402.8   7.4225 26340.5
 18 10 2016  07 22  -15.5117 26119.4   3401.8   7.4204 26340.0
 18 10 2016  07 23  -15.5106 26119.4   3403.8   7.4249 26340.3
 18 10 2016  07 24  -15.5120 26119.1   3401.7   7.4202 26339.7
 18 10 2016  07 25  -15.5112 26119.0   3403.2   7.4235 26339.8
 18 10 2016  07 26  -15.5108 26118.9   3403.9   7.4251 26339.8
 18 10 2016  07 27  -15.5104 26119.1   3403.7   7.4247 26339.9
 18 10 2016  07 28  -15.5100 26119.3   3401.8   7.4204 26339.9
 18 10 2016  07 29  -15.5091 26119.3   3402.2   7.4212 26339.9
 18 10 2016  07 30  -15.5099 26118.7   3403.7   7.4248 26339.5
 18 10 2016  07 31  -15.5093 26119.0   3402.8   7.4228 26339.7
 18 10 2016  07 32  -15.5090 26118.6   3404.1   7.4256 26339.5
 18 10 2016  07 33  -15.5100 26118.6   3402.7   7.4226 26339.3
 18 10 2016  07 34  -15.5090 26118.7   3403.5   7.4242 26339.5
 18 10 2016  07 35  -15.5107 26118.5   3402.3   7.4218 26339.2
 18 10 2016  07 36  -15.5101 26119.0   3401.5   7.4200 26339.5
 18 10 2016  07 37  -15.5107 26118.7   3402.3   7.4216 26339.4
 18 10 2016  07 38  -15.5102 26118.7   3402.6   7.4224 26339.4
 18 10 2016  07 39  -15.5086 26118.8   3403.4   7.4241 26339.6
 18 10 2016  07 40  -15.5101 26118.3   3403.0   7.4234 26339.1
 18 10 2016  07 41  -15.5095 26118.8   3402.2   7.4214 26339.5
 18 10 2016  07 42  -15.5084 26119.2   3403.7   7.4246 26340.1
 18 10 2016  07 43  -15.5082 26119.3   3404.4   7.4261 26340.2
 18 10 2016  07 44  -15.5076 26119.8   3403.9   7.4249 26340.6
 18 10 2016  07 45  -15.5077 26120.0   3403.2   7.4233 26340.8
 18 10 2016  07 46  -15.5071 26120.3   3402.8   7.4224 26341.0
 18 10 2016  07 47  -15.5068 26119.9   3404.2   7.4254 26340.8
 18 10 2016  07 48  -15.5071 26119.4   3403.9   7.4249 26340.3
 18 10 2016  07 49  -15.5074 26119.4   3402.6   7.4221 26340.1
 18 10 2016  07 50  -15.5066 26119.5   3404.1   7.4255 26340.4
 18 10 2016  07 51  -15.5073 26119.8   3402.7   7.4223 26340.5
 18 10 2016  07 52  -15.5060 26120.2   3403.6   7.4242 26341.0
 18 10 2016  07 53  -15.5076 26119.9   3402.2   7.4213 26340.5
 18 10 2016  07 54  -15.5064 26119.9   3403.5   7.4239 26340.7
 18 10 2016  07 55  -15.5055 26120.1   3403.0   7.4228 26340.8
 18 10 2016  07 56  -15.5056 26119.8   3405.0   7.4273 26340.8
 18 10 2016  07 57  -15.5071 26119.7   3404.0   7.4252 26340.5
 18 10 2016  07 58  -15.5074 26120.1   3402.9   7.4226 26340.8
 18 10 2016  07 59  -15.5063 26120.6   3403.0   7.4228 26341.4
 18 10 2016  08 00  -15.5061 26120.7   3404.1   7.4250 26341.5
 18 10 2016  08 01  -15.5067 26120.7   3402.6   7.4219 26341.4
 18 10 2016  08 02  -15.5051 26120.8   3403.8   7.4244 26341.6
 18 10 2016  08 03  -15.5049 26120.6   3403.5   7.4238 26341.4
 18 10 2016  08 04  -15.5050 26120.1   3404.5   7.4261 26341.0
 18 10 2016  08 05  -15.5033 26120.6   3404.4   7.4258 26341.5
 18 10 2016  08 06  -15.5046 26120.5   3403.6   7.4240 26341.3
 18 10 2016  08 07  -15.5043 26120.4   3404.4   7.4257 26341.3
 18 10 2016  08 08  -15.5041 26120.4   3404.0   7.4248 26341.3
 18 10 2016  08 09  -15.5043 26120.5   3402.6   7.4218 26341.1
 18 10 2016  08 10  -15.5027 26120.4   3404.4   7.4257 26341.3
 18 10 2016  08 11  -15.5035 26120.4   3402.0   7.4207 26341.0
 18 10 2016  08 12  -15.5028 26120.2   3403.0   7.4228 26340.9
 18 10 2016  08 13  -15.5023 26120.1   3402.9   7.4227 26340.8
 18 10 2016  08 14  -15.5010 26120.1   3404.5   7.4261 26341.0
 18 10 2016  08 15  -15.5020 26119.8   3402.8   7.4226 26340.5
 18 10 2016  08 16  -15.5018 26119.6   3403.5   7.4242 26340.4
 18 10 2016  08 17  -15.5023 26119.6   3403.0   7.4230 26340.4
 18 10 2016  08 18  -15.5010 26120.0   3403.2   7.4232 26340.8
 18 10 2016  08 19  -15.5016 26119.8   3403.7   7.4244 26340.6
 18 10 2016  08 20  -15.5022 26119.7   3403.3   7.4237 26340.5
 18 10 2016  08 21  -15.5022 26120.0   3402.1   7.4210 26340.7
 18 10 2016  08 22  -15.5010 26120.4   3402.2   7.4211 26341.1
 18 10 2016  08 23  -15.5017 26120.1   3402.6   7.4220 26340.8
 18 10 2016  08 24  -15.5024 26119.7   3402.5   7.4218 26340.4
 18 10 2016  08 25  -15.5015 26119.7   3403.2   7.4234 26340.5
 18 10 2016  08 26  -15.5019 26119.8   3401.3   7.4193 26340.4
 18 10 2016  08 27  -15.5013 26119.3   3404.0   7.4252 26340.2
 18 10 2016  08 28  -15.5004 26119.4   3403.9   7.4250 26340.3
 18 10 2016  08 29  -15.5001 26119.7   3402.8   7.4224 26340.4
 18 10 2016  08 30  -15.5002 26119.5   3403.1   7.4233 26340.3
 18 10 2016  08 31  -15.5009 26119.2   3404.2   7.4257 26340.1
 18 10 2016  08 32  -15.5014 26119.5   3401.8   7.4205 26340.1
 18 10 2016  08 33  -15.5006 26119.6   3402.5   7.4219 26340.3
 18 10 2016  08 34  -15.5011 26119.3   3402.7   7.4224 26340.0
 18 10 2016  08 35  -15.5023 26118.7   3402.7   7.4227 26339.5
 18 10 2016  08 36  -15.5010 26119.0   3403.3   7.4238 26339.8
 18 10 2016  08 37  -15.5014 26119.1   3401.6   7.4201 26339.7
 18 10 2016  08 38  -15.5017 26118.7   3403.3   7.4239 26339.5
 18 10 2016  08 39  -15.5022 26118.5   3403.9   7.4253 26339.3
 18 10 2016  08 40  -15.5027 26118.4   3403.0   7.4233 26339.2
 18 10 2016  08 41  -15.5026 26118.3   3403.3   7.4240 26339.1
 18 10 2016  08 42  -15.5027 26118.5   3402.3   7.4217 26339.1
 18 10 2016  08 43  -15.5027 26118.5   3401.8   7.4207 26339.1
 18 10 2016  08 44  -15.5020 26118.0   3404.1   7.4258 26338.9
 18 10 2016  08 45  -15.5028 26117.7   3403.4   7.4244 26338.6
 18 10 2016  08 46  -15.5038 26117.6   3402.3   7.4220 26338.3
 18 10 2016  08 47  -15.5034 26117.6   3403.0   7.4236 26338.4
 18 10 2016  08 48  -15.5041 26117.4   3403.5   7.4247 26338.2
 18 10 2016  08 49  -15.5044 26117.3   3403.3   7.4243 26338.1
 18 10 2016  08 50  -15.5033 26117.4   3404.1   7.4260 26338.3
 18 10 2016  08 51  -15.5036 26117.2   3404.1   7.4260 26338.2
 18 10 2016  08 52  -15.5035 26117.4   3403.2   7.4241 26338.2
 18 10 2016  08 53  -15.5037 26117.4   3402.4   7.4223 26338.1
 18 10 2016  08 54  -15.5044 26117.1   3403.5   7.4247 26337.9
 18 10 2016  08 55  -15.5045 26117.1   3403.5   7.4248 26337.9
 18 10 2016  08 56  -15.5047 26117.2   3403.3   7.4242 26338.0
 18 10 2016  08 57  -15.5048 26117.1   3404.2   7.4262 26338.1
 18 10 2016  08 58  -15.5050 26117.2   3403.9   7.4257 26338.1
 18 10 2016  08 59  -15.5050 26117.3   3403.8   7.4253 26338.2
 18 10 2016  09 00  -15.5045 26117.6   3404.0   7.4257 26338.5
 18 10 2016  09 01  -15.5053 26117.2   3404.5   7.4269 26338.1
 18 10 2016  09 02  -15.5063 26117.0   3403.4   7.4245 26337.8
 18 10 2016  09 03  -15.5052 26116.7   3404.6   7.4273 26337.7
 18 10 2016  09 04  -15.5061 26116.4   3404.1   7.4263 26337.3
 18 10 2016  09 05  -15.5064 26116.3   3404.0   7.4260 26337.2
 18 10 2016  09 06  -15.5066 26116.2   3403.9   7.4259 26337.1
 18 10 2016  09 07  -15.5073 26115.8   3404.4   7.4271 26336.8
 18 10 2016  09 08  -15.5077 26115.6   3404.4   7.4272 26336.6
 18 10 2016  09 09  -15.5076 26115.5   3404.9   7.4282 26336.5
 18 10 2016  09 10  -15.5082 26115.2   3405.7   7.4300 26336.4
 18 10 2016  09 11  -15.5085 26115.0   3404.9   7.4285 26336.1
 18 10 2016  09 12  -15.5075 26115.1   3405.7   7.4300 26336.2
 18 10 2016  09 13  -15.5084 26114.7   3404.5   7.4277 26335.7
 18 10 2016  09 14  -15.5079 26114.4   3406.4   7.4319 26335.6
 18 10 2016  09 15  -15.5086 26114.2   3405.3   7.4295 26335.3
 18 10 2016  09 16  -15.5082 26114.3   3405.0   7.4287 26335.4
 18 10 2016  09 17  -15.5079 26114.2   3405.4   7.4297 26335.3
 18 10 2016  09 18  -15.5074 26114.2   3407.0   7.4331 26335.5
 18 10 2016  09 19  -15.5076 26114.2   3405.9   7.4309 26335.4
 18 10 2016  09 20  -15.5070 26114.6   3405.5   7.4297 26335.7
 18 10 2016  09 21  -15.5067 26114.2   3407.0   7.4332 26335.5
 18 10 2016  09 22  -15.5071 26114.1   3407.2   7.4336 26335.4
 18 10 2016  09 23  -15.5067 26114.4   3407.0   7.4331 26335.7
 18 10 2016  09 24  -15.5079 26114.6   3406.5   7.4320 26335.8
 18 10 2016  09 25  -15.5081 26114.8   3407.0   7.4329 26336.1
 18 10 2016  09 26  -15.5087 26115.0   3407.6   7.4342 26336.4
 18 10 2016  09 27  -15.5081 26115.4   3407.9   7.4346 26336.9
 18 10 2016  09 28  -15.5078 26115.5   3408.9   7.4368 26337.1
 18 10 2016  09 29  -15.5085 26115.7   3409.0   7.4370 26337.3
 18 10 2016  09 30  -15.5093 26115.9   3408.6   7.4362 26337.4
 18 10 2016  09 31  -15.5086 26116.0   3408.4   7.4356 26337.5
 18 10 2016  09 32  -15.5095 26115.7   3408.0   7.4349 26337.1
 18 10 2016  09 33  -15.5090 26115.8   3408.6   7.4361 26337.3
 18 10 2016  09 34  -15.5086 26116.1   3408.3   7.4353 26337.6
 18 10 2016  09 35  -15.5087 26116.1   3408.1   7.4350 26337.5
 18 10 2016  09 36  -15.5088 26116.2   3407.3   7.4332 26337.5
 18 10 2016  09 37  -15.5077 26116.1   3408.1   7.4350 26337.6
 18 10 2016  09 38  -15.5081 26115.9   3409.2   7.4373 26337.5
 18 10 2016  09 39  -15.5090 26115.7   3407.7   7.4343 26337.1
 18 10 2016  09 40  -15.5086 26115.6   3407.9   7.4347 26337.0
 18 10 2016  09 41  -15.5089 26115.6   3408.9   7.4368 26337.2
 18 10 2016  09 42  -15.5089 26115.6   3407.3   7.4333 26336.9
 18 10 2016  09 43  -15.5084 26115.6   3408.2   7.4352 26337.0
 18 10 2016  09 44  -15.5072 26116.0   3408.9   7.4368 26337.5
 18 10 2016  09 45  -15.5074 26116.3   3409.5   7.4379 26337.9
 18 10 2016  09 46  -15.5085 26116.8   3408.3   7.4351 26338.3
 18 10 2016  09 47  -15.5087 26116.8   3409.2   7.4372 26338.4
 18 10 2016  09 48  -15.5077 26116.9   3409.4   7.4375 26338.5
 18 10 2016  09 49  -15.5065 26117.3   3409.0   7.4365 26338.8
 18 10 2016  09 50  -15.5061 26117.5   3408.0   7.4344 26338.9
 18 10 2016  09 51  -15.5045 26117.3   3409.3   7.4372 26338.9
 18 10 2016  09 52  -15.5052 26117.2   3407.5   7.4335 26338.5
 18 10 2016  09 53  -15.5039 26118.2   3409.8   7.4381 26339.8
 18 10 2016  09 54  -15.5043 26119.4   3409.5   7.4370 26340.9
 18 10 2016  09 55  -15.5035 26120.0   3409.6   7.4372 26341.6
 18 10 2016  09 56  -15.5029 26119.7   3409.2   7.4363 26341.3
 18 10 2016  09 57  -15.5022 26119.5   3409.5   7.4371 26341.1
 18 10 2016  09 58  -15.5034 26119.4   3408.7   7.4354 26340.9
 18 10 2016  09 59  -15.5045 26120.2   3409.0   7.4357 26341.7
 18 10 2016  10 00  -15.5068 26121.4   3409.6   7.4366 26343.0
 18 10 2016  10 01  -15.5076 26120.7   3407.9   7.4333 26342.1
 18 10 2016  10 02  -15.5079 26119.8   3406.6   7.4306 26341.0
 18 10 2016  10 03  -15.5072 26120.2   3408.1   7.4339 26341.6
 18 10 2016  10 04  -15.5076 26120.8   3409.2   7.4361 26342.4
 18 10 2016  10 05  -15.5082 26120.9   3408.4   7.4342 26342.3
 18 10 2016  10 06  -15.5087 26120.9   3408.8   7.4352 26342.4
 18 10 2016  10 07  -15.5095 26120.9   3408.8   7.4351 26342.4
 18 10 2016  10 08  -15.5102 26120.6   3408.2   7.4340 26342.0
 18 10 2016  10 09  -15.5102 26120.1   3408.3   7.4344 26341.5
 18 10 2016  10 10  -15.5104 26120.0   3408.6   7.4349 26341.5
 18 10 2016  10 11  -15.5106 26119.8   3408.9   7.4357 26341.4
 18 10 2016  10 12  -15.5103 26119.4   3409.3   7.4365 26341.0
 18 10 2016  10 13  -15.5104 26119.5   3409.6   7.4373 26341.1
 18 10 2016  10 14  -15.5112 26119.7   3409.8   7.4377 26341.3
 18 10 2016  10 15  -15.5119 26120.1   3410.0   7.4379 26341.8
 18 10 2016  10 16  -15.5128 26120.6   3409.6   7.4369 26342.2
 18 10 2016  10 17  -15.5130 26121.2   3410.5   7.4388 26342.9
 18 10 2016  10 18  -15.5127 26121.7   3410.4   7.4383 26343.4
 18 10 2016  10 19  -15.5132 26121.5   3410.1   7.4378 26343.1
 18 10 2016  10 20  -15.5133 26121.0   3409.7   7.4371 26342.6
 18 10 2016  10 21  -15.5130 26120.8   3409.9   7.4375 26342.4
 18 10 2016  10 22  -15.5131 26120.8   3410.2   7.4381 26342.4
 18 10 2016  10 23  -15.5138 26120.8   3409.4   7.4364 26342.4
 18 10 2016  10 24  -15.5130 26120.9   3410.7   7.4393 26342.7
 18 10 2016  10 25  -15.5133 26121.0   3410.3   7.4384 26342.7
 18 10 2016  10 26  -15.5129 26121.4   3410.8   7.4392 26343.1
 18 10 2016  10 27  -15.5127 26122.0   3411.3   7.4402 26343.8
 18 10 2016  10 28  -15.5129 26121.9   3411.2   7.4400 26343.7
 18 10 2016  10 29  -15.5128 26120.9   3411.4   7.4406 26342.7
 18 10 2016  10 30  -15.5129 26120.8   3410.9   7.4396 26342.5
 18 10 2016  10 31  -15.5132 26120.5   3410.8   7.4396 26342.2
 18 10 2016  10 32  -15.5126 26120.3   3411.2   7.4404 26342.1
 18 10 2016  10 33  -15.5124 26120.3   3411.1   7.4403 26342.0
 18 10 2016  10 34  -15.5123 26120.6   3411.3   7.4406 26342.4
 18 10 2016  10 35  -15.5125 26121.1   3411.5   7.4409 26342.9
 18 10 2016  10 36  -15.5128 26121.6   3411.7   7.4412 26343.5
 18 10 2016  10 37  -15.5132 26122.1   3411.3   7.4402 26343.9
 18 10 2016  10 38  -15.5123 26123.0   3412.2   7.4418 26344.9
 18 10 2016  10 39  -15.5130 26123.5   3412.1   7.4414 26345.4
 18 10 2016  10 40  -15.5137 26124.1   3411.5   7.4401 26345.9
 18 10 2016  10 41  -15.5136 26124.9   3411.4   7.4396 26346.7
 18 10 2016  10 42  -15.5139 26125.6   3411.6   7.4399 26347.4
 18 10 2016  10 43  -15.5140 26126.1   3411.5   7.4394 26347.9
 18 10 2016  10 44  -15.5133 26126.8   3411.5   7.4393 26348.6
 18 10 2016  10 45  -15.5140 26126.8   3410.8   7.4378 26348.5
 18 10 2016  10 46  -15.5136 26127.0   3410.5   7.4372 26348.7
 18 10 2016  10 47  -15.5139 26126.8   3410.7   7.4376 26348.5
 18 10 2016  10 48  -15.5135 26127.1   3410.5   7.4371 26348.7
 18 10 2016  10 49  -15.5131 26127.2   3410.8   7.4376 26348.8
 18 10 2016  10 50  -15.5129 26127.2   3410.7   7.4374 26348.9
 18 10 2016  10 51  -15.5120 26127.3   3410.8   7.4376 26348.9
 18 10 2016  10 52  -15.5121 26127.7   3410.8   7.4375 26349.4
 18 10 2016  10 53  -15.5120 26128.3   3411.0   7.4377 26350.0
 18 10 2016  10 54  -15.5121 26128.9   3410.8   7.4373 26350.6
 18 10 2016  10 55  -15.5124 26129.0   3410.6   7.4367 26350.6
 18 10 2016  10 56  -15.5123 26129.4   3410.4   7.4361 26351.0
 18 10 2016  10 57  -15.5121 26129.7   3410.4   7.4362 26351.3
 18 10 2016  10 58  -15.5121 26129.9   3410.1   7.4354 26351.5
 18 10 2016  10 59  -15.5121 26129.9   3410.0   7.4351 26351.5
 18 10 2016  11 00  -15.5117 26129.8   3409.7   7.4345 26351.3
 18 10 2016  11 01  -15.5115 26129.7   3409.6   7.4343 26351.2
 18 10 2016  11 02  -15.5112 26129.8   3409.3   7.4338 26351.3
 18 10 2016  11 03  -15.5111 26129.8   3409.3   7.4337 26351.3
 18 10 2016  11 04  -15.5106 26129.7   3409.2   7.4336 26351.1
 18 10 2016  11 05  -15.5108 26129.6   3409.0   7.4331 26351.1
 18 10 2016  11 06  -15.5104 26129.8   3409.1   7.4332 26351.3
 18 10 2016  11 07  -15.5103 26129.9   3408.9   7.4328 26351.3
 18 10 2016  11 08  -15.5101 26130.1   3409.0   7.4329 26351.5
 18 10 2016  11 09  -15.5099 26130.7   3408.9   7.4326 26352.1
 18 10 2016  11 10  -15.5100 26131.1   3408.5   7.4317 26352.5
 18 10 2016  11 11  -15.5102 26131.3   3408.5   7.4316 26352.6
 18 10 2016  11 12  -15.5105 26131.4   3408.0   7.4304 26352.7
 18 10 2016  11 13  -15.5106 26131.6   3407.9   7.4302 26352.9
 18 10 2016  11 14  -15.5105 26132.0   3407.6   7.4294 26353.2
 18 10 2016  11 15  -15.5108 26131.9   3407.2   7.4287 26353.0
 18 10 2016  11 16  -15.5111 26132.0   3406.8   7.4277 26353.1
 18 10 2016  11 17  -15.5109 26132.8   3407.1   7.4280 26354.0
 18 10 2016  11 18  -15.5106 26133.6   3406.2   7.4259 26354.6
 18 10 2016  11 19  -15.5116 26133.8   3406.4   7.4263 26354.8
 18 10 2016  11 20  -15.5109 26134.6   3406.5   7.4264 26355.6
 18 10 2016  11 21  -15.5112 26135.1   3405.8   7.4247 26356.1
 18 10 2016  11 22  -15.5109 26135.6   3404.9   7.4226 26356.5
 18 10 2016  11 23  -15.5123 26135.4   3404.0   7.4208 26356.1
 18 10 2016  11 24  -15.5124 26135.9   3404.3   7.4212 26356.6
 18 10 2016  11 25  -15.5112 26137.2   3404.4   7.4211 26358.0
 18 10 2016  11 26  -15.5113 26138.4   3405.1   7.4223 26359.3
 18 10 2016  11 27  -15.5102 26138.9   3404.3   7.4203 26359.7
 18 10 2016  11 28  -15.5097 26139.8   3403.8   7.4191 26360.4
 18 10 2016  11 29  -15.5084 26140.7   3403.6   7.4184 26361.3
 18 10 2016  11 30  -15.5085 26140.8   3403.4   7.4178 26361.4
 18 10 2016  11 31  -15.5090 26140.4   3402.3   7.4156 26360.9
 18 10 2016  11 32  -15.5079 26141.3   3402.5   7.4157 26361.8
 18 10 2016  11 33  -15.5094 26140.7   3400.5   7.4117 26361.0
 18 10 2016  11 34  -15.5082 26140.9   3399.8   7.4101 26361.0
 18 10 2016  11 35  -15.5087 26140.9   3400.3   7.4112 26361.1
 18 10 2016  11 36  -15.5085 26141.1   3400.5   7.4115 26361.4
 18 10 2016  11 37  -15.5080 26141.6   3400.1   7.4105 26361.8
 18 10 2016  11 38  -15.5077 26142.0   3400.7   7.4116 26362.3
 18 10 2016  11 39  -15.5076 26142.8   3399.8   7.4096 26363.0
 18 10 2016  11 40  -15.5072 26144.0   3400.3   7.4104 26364.2
 18 10 2016  11 41  -15.5065 26145.0   3401.0   7.4115 26365.3
 18 10 2016  11 42  -15.5067 26145.9   3400.1   7.4093 26366.0
 18 10 2016  11 43  -15.5074 26146.6   3398.9   7.4065 26366.6
 18 10 2016  11 44  -15.5069 26147.5   3398.4   7.4052 26367.4
 18 10 2016  11 45  -15.5065 26148.1   3397.8   7.4038 26367.9
 18 10 2016  11 46  -15.5064 26149.0   3397.7   7.4034 26368.9
 18 10 2016  11 47  -15.5063 26150.3   3397.3   7.4021 26370.1
 18 10 2016  11 48  -15.5063 26151.6   3396.9   7.4009 26371.3
 18 10 2016  11 49  -15.5056 26152.5   3396.5   7.3998 26372.2
 18 10 2016  11 50  -15.5053 26153.2   3396.1   7.3986 26372.8
 18 10 2016  11 51  -15.5051 26154.0   3394.9   7.3959 26373.4
 18 10 2016  11 52  -15.5049 26154.0   3394.0   7.3940 26373.3
 18 10 2016  11 53  -15.5050 26153.6   3393.4   7.3927 26372.8
 18 10 2016  11 54  -15.5045 26153.7   3392.6   7.3910 26372.8
 18 10 2016  11 55  -15.5047 26152.8   3391.7   7.3893 26371.9
 18 10 2016  11 56  -15.5049 26151.5   3390.9   7.3880 26370.5
 18 10 2016  11 57  -15.5050 26151.1   3390.7   7.3876 26370.0
 18 10 2016  11 58  -15.5044 26151.3   3391.1   7.3885 26370.3
 18 10 2016  11 59  -15.5042 26151.6   3391.1   7.3884 26370.5
 18 10 2016  12 00  -15.5040 26151.8   3390.8   7.3877 26370.7
 18 10 2016  12 01  -15.5040 26151.8   3390.6   7.3872 26370.7
 18 10 2016  12 02  -15.5038 26152.1   3390.3   7.3865 26370.9
 18 10 2016  12 03  -15.5037 26152.5   3390.1   7.3859 26371.3
 18 10 2016  12 04  -15.5034 26152.9   3389.8   7.3851 26371.7
 18 10 2016  12 05  -15.5033 26153.3   3389.3   7.3840 26372.0
 18 10 2016  12 06  -15.5034 26154.2   3389.0   7.3832 26372.9
 18 10 2016  12 07  -15.5037 26154.9   3388.5   7.3819 26373.5
 18 10 2016  12 08  -15.5043 26155.9   3388.0   7.3804 26374.4
 18 10 2016  12 09  -15.5048 26156.9   3387.4   7.3789 26375.3
 18 10 2016  12 10  -15.5051 26157.8   3386.6   7.3769 26376.1
 18 10 2016  12 11  -15.5053 26158.3   3386.0   7.3756 26376.5
 18 10 2016  12 12  -15.5052 26159.2   3385.5   7.3741 26377.4
 18 10 2016  12 13  -15.5053 26159.6   3385.1   7.3733 26377.8
 18 10 2016  12 14  -15.5047 26160.6   3385.2   7.3731 26378.7
 18 10 2016  12 15  -15.5043 26161.6   3384.4   7.3711 26379.6
 18 10 2016  12 16  -15.5042 26162.6   3383.7   7.3694 26380.5
 18 10 2016  12 17  -15.5039 26163.2   3383.5   7.3688 26381.0
 18 10 2016  12 18  -15.5041 26163.7   3382.6   7.3668 26381.4
 18 10 2016  12 19  -15.5043 26163.9   3381.7   7.3646 26381.5
 18 10 2016  12 20  -15.5043 26164.0   3380.8   7.3626 26381.6
 18 10 2016  12 21  -15.5042 26164.1   3380.6   7.3622 26381.6
 18 10 2016  12 22  -15.5039 26164.5   3380.1   7.3610 26381.9
 18 10 2016  12 23  -15.5044 26164.6   3379.5   7.3598 26381.9
 18 10 2016  12 24  -15.5049 26164.8   3379.0   7.3585 26382.1
 18 10 2016  12 25  -15.5044 26165.6   3379.0   7.3583 26382.8
 18 10 2016  12 26  -15.5053 26165.8   3378.0   7.3563 26382.9
 18 10 2016  12 27  -15.5060 26166.1   3377.1   7.3542 26383.2
 18 10 2016  12 28  -15.5054 26166.7   3376.9   7.3536 26383.7
 18 10 2016  12 29  -15.5062 26166.7   3376.1   7.3518 26383.6
 18 10 2016  12 30  -15.5069 26167.0   3375.1   7.3496 26383.8
 18 10 2016  12 31  -15.5066 26167.1   3375.5   7.3504 26383.9
 18 10 2016  12 32  -15.5070 26167.3   3374.0   7.3471 26384.0
 18 10 2016  12 33  -15.5073 26168.2   3374.1   7.3471 26384.8
 18 10 2016  12 34  -15.5070 26169.0   3374.6   7.3480 26385.6
 18 10 2016  12 35  -15.5073 26169.9   3373.7   7.3458 26386.4
 18 10 2016  12 36  -15.5081 26170.7   3372.8   7.3437 26387.2
 18 10 2016  12 37  -15.5078 26171.6   3373.3   7.3444 26388.1
 18 10 2016  12 38  -15.5076 26172.3   3373.2   7.3439 26388.8
 18 10 2016  12 39  -15.5088 26172.8   3372.1   7.3416 26389.2
 18 10 2016  12 40  -15.5083 26173.7   3372.4   7.3419 26390.1
 18 10 2016  12 41  -15.5088 26174.6   3371.1   7.3389 26390.8
 18 10 2016  12 42  -15.5090 26175.5   3370.5   7.3373 26391.6
 18 10 2016  12 43  -15.5098 26176.2   3370.3   7.3366 26392.3
 18 10 2016  12 44  -15.5105 26176.4   3369.2   7.3343 26392.4
 18 10 2016  12 45  -15.5103 26176.7   3367.4   7.3303 26392.4
 18 10 2016  12 46  -15.5105 26176.7   3368.0   7.3316 26392.5
 18 10 2016  12 47  -15.5103 26177.1   3368.0   7.3314 26392.9
 18 10 2016  12 48  -15.5102 26177.7   3366.8   7.3287 26393.4
 18 10 2016  12 49  -15.5099 26178.4   3366.7   7.3284 26394.0
 18 10 2016  12 50  -15.5098 26179.0   3366.6   7.3279 26394.6
 18 10 2016  12 51  -15.5097 26179.6   3366.2   7.3270 26395.1
 18 10 2016  12 52  -15.5097 26180.0   3364.3   7.3228 26395.3
 18 10 2016  12 53  -15.5090 26180.6   3364.3   7.3227 26395.9
 18 10 2016  12 54  -15.5086 26181.5   3363.7   7.3210 26396.7
 18 10 2016  12 55  -15.5089 26182.7   3363.1   7.3194 26397.8
 18 10 2016  12 56  -15.5084 26184.0   3363.7   7.3204 26399.2
 18 10 2016  12 57  -15.5088 26185.2   3362.5   7.3175 26400.2
 18 10 2016  12 58  -15.5092 26186.1   3362.2   7.3164 26401.1
 18 10 2016  12 59  -15.5080 26187.4   3362.2   7.3161 26402.3
 18 10 2016  13 00  -15.5075 26187.9   3360.7   7.3129 26402.7
 18 10 2016  13 01  -15.5071 26187.7   3360.2   7.3117 26402.4
 18 10 2016  13 02  -15.5074 26187.3   3358.0   7.3071 26401.8
 18 10 2016  13 03  -15.5082 26186.4   3357.3   7.3058 26400.8
 18 10 2016  13 04  -15.5080 26186.6   3358.1   7.3076 26401.0
 18 10 2016  13 05  -15.5078 26187.4   3358.0   7.3072 26401.8
 18 10 2016  13 06  -15.5069 26188.5   3357.7   7.3063 26402.9
 18 10 2016  13 07  -15.5062 26189.1   3357.2   7.3049 26403.4
 18 10 2016  13 08  -15.5070 26189.0   3356.9   7.3042 26403.3
 18 10 2016  13 09  -15.5070 26189.4   3355.8   7.3018 26403.5
 18 10 2016  13 10  -15.5071 26189.7   3356.3   7.3030 26403.9
 18 10 2016  13 11  -15.5077 26189.8   3355.2   7.3004 26403.8
 18 10 2016  13 12  -15.5078 26190.0   3356.0   7.3020 26404.1
 18 10 2016  13 13  -15.5074 26191.1   3354.9   7.2994 26405.0
 18 10 2016  13 14  -15.5070 26192.4   3353.6   7.2963 26406.3
 18 10 2016  13 15  -15.5067 26193.9   3354.7   7.2982 26407.8
 18 10 2016  13 16  -15.5076 26195.1   3352.8   7.2938 26408.8
 18 10 2016  13 17  -15.5076 26196.2   3352.6   7.2931 26409.9
 18 10 2016  13 18  -15.5080 26197.4   3351.8   7.2910 26411.0
 18 10 2016  13 19  -15.5075 26198.4   3351.2   7.2894 26411.9
 18 10 2016  13 20  -15.5078 26199.5   3350.4   7.2874 26412.9
 18 10 2016  13 21  -15.5090 26200.1   3348.6   7.2835 26413.2
 18 10 2016  13 22  -15.5091 26200.5   3348.2   7.2825 26413.6
 18 10 2016  13 23  -15.5084 26200.9   3348.6   7.2833 26414.1
 18 10 2016  13 24  -15.5097 26200.7   3347.8   7.2815 26413.7
 18 10 2016  13 25  -15.5093 26200.9   3346.8   7.2792 26413.8
 18 10 2016  13 26  -15.5107 26201.0   3345.2   7.2758 26413.7
 18 10 2016  13 27  -15.5112 26200.8   3345.6   7.2767 26413.6
 18 10 2016  13 28  -15.5130 26200.5   3344.2   7.2739 26413.0
 18 10 2016  13 29  -15.5118 26200.9   3345.5   7.2765 26413.7
 18 10 2016  13 30  -15.5112 26200.9   3345.4   7.2762 26413.6
 18 10 2016  13 31  -15.5122 26200.1   3344.3   7.2742 26412.7
 18 10 2016  13 32  -15.5130 26199.7   3344.0   7.2736 26412.2
 18 10 2016  13 33  -15.5147 26199.2   3343.6   7.2728 26411.7
 18 10 2016  13 34  -15.5149 26200.5   3343.8   7.2731 26413.0
 18 10 2016  13 35  -15.5148 26202.2   3344.8   7.2746 26414.9
 18 10 2016  13 36  -15.5143 26203.8   3344.1   7.2727 26416.4
 18 10 2016  13 37  -15.5137 26205.1   3343.9   7.2719 26417.5
 18 10 2016  13 38  -15.5136 26205.7   3342.8   7.2694 26418.1
 18 10 2016  13 39  -15.5139 26206.7   3342.3   7.2679 26419.0
 18 10 2016  13 40  -15.5117 26208.4   3342.8   7.2686 26420.7
 18 10 2016  13 41  -15.5124 26209.2   3341.5   7.2657 26421.4
 18 10 2016  13 42  -15.5118 26210.5   3340.7   7.2635 26422.5
 18 10 2016  13 43  -15.5126 26210.8   3341.0   7.2641 26422.9
 18 10 2016  13 44  -15.5128 26211.2   3340.3   7.2626 26423.2
 18 10 2016  13 45  -15.5136 26211.1   3339.4   7.2607 26423.0
 18 10 2016  13 46  -15.5141 26210.8   3338.4   7.2586 26422.5
 18 10 2016  13 47  -15.5141 26211.5   3338.7   7.2590 26423.3
 18 10 2016  13 48  -15.5141 26212.8   3339.3   7.2599 26424.7
 18 10 2016  13 49  -15.5146 26212.9   3338.5   7.2581 26424.6
 18 10 2016  13 50  -15.5154 26213.1   3337.4   7.2557 26424.7
 18 10 2016  13 51  -15.5165 26212.3   3336.4   7.2539 26423.8
 18 10 2016  13 52  -15.5168 26212.0   3337.1   7.2554 26423.5
 18 10 2016  13 53  -15.5180 26211.1   3336.7   7.2548 26422.6
 18 10 2016  13 54  -15.5182 26210.1   3336.3   7.2542 26421.6
 18 10 2016  13 55  -15.5186 26208.9   3336.6   7.2552 26420.4
 18 10 2016  13 56  -15.5189 26208.3   3336.7   7.2556 26419.8
 18 10 2016  13 57  -15.5194 26207.8   3337.4   7.2572 26419.4
 18 10 2016  13 58  -15.5198 26207.5   3337.4   7.2572 26419.2
 18 10 2016  13 59  -15.5199 26207.9   3337.7   7.2578 26419.5
 18 10 2016  14 00  -15.5203 26207.7   3338.6   7.2598 26419.5
 18 10 2016  14 01  -15.5205 26207.4   3339.5   7.2618 26419.3
 18 10 2016  14 02  -15.5212 26207.1   3340.2   7.2633 26419.1
 18 10 2016  14 03  -15.5219 26207.2   3339.4   7.2616 26419.1
 18 10 2016  14 04  -15.5221 26207.0   3340.4   7.2638 26419.0
 18 10 2016  14 05  -15.5227 26207.0   3340.8   7.2646 26419.1
 18 10 2016  14 06  -15.5228 26207.0   3340.3   7.2638 26419.0
 18 10 2016  14 07  -15.5240 26206.3   3339.8   7.2628 26418.3
 18 10 2016  14 08  -15.5241 26205.7   3341.9   7.2674 26417.9
 18 10 2016  14 09  -15.5251 26205.2   3341.2   7.2660 26417.4
 18 10 2016  14 10  -15.5247 26205.5   3341.2   7.2660 26417.6
 18 10 2016  14 11  -15.5248 26205.7   3342.3   7.2683 26418.0
 18 10 2016  14 12  -15.5248 26205.8   3343.4   7.2706 26418.2
 18 10 2016  14 13  -15.5252 26206.1   3343.2   7.2701 26418.5
 18 10 2016  14 14  -15.5255 26206.1   3342.4   7.2684 26418.3
 18 10 2016  14 15  -15.5254 26206.1   3342.8   7.2693 26418.5
 18 10 2016  14 16  -15.5245 26206.8   3343.8   7.2713 26419.3
 18 10 2016  14 17  -15.5245 26207.5   3344.0   7.2715 26420.0
 18 10 2016  14 18  -15.5243 26208.1   3344.7   7.2729 26420.7
 18 10 2016  14 19  -15.5239 26208.6   3344.8   7.2729 26421.2
 18 10 2016  14 20  -15.5242 26208.8   3343.9   7.2709 26421.3
 18 10 2016  14 21  -15.5233 26208.9   3345.1   7.2734 26421.5
 18 10 2016  14 22  -15.5240 26208.9   3343.5   7.2700 26421.3
 18 10 2016  14 23  -15.5249 26208.5   3343.5   7.2702 26420.9
 18 10 2016  14 24  -15.5234 26208.8   3344.6   7.2723 26421.3
 18 10 2016  14 25  -15.5233 26209.4   3343.7   7.2702 26421.8
 18 10 2016  14 26  -15.5226 26209.9   3345.4   7.2739 26422.5
 18 10 2016  14 27  -15.5230 26210.2   3343.2   7.2691 26422.6
 18 10 2016  14 28  -15.5234 26210.1   3343.0   7.2686 26422.4
 18 10 2016  14 29  -15.5223 26211.0   3343.4   7.2691 26423.4
 18 10 2016  14 30  -15.5214 26211.7   3344.0   7.2704 26424.1
 18 10 2016  14 31  -15.5192 26212.4   3345.2   7.2727 26425.0
 18 10 2016  14 32  -15.5185 26213.0   3344.3   7.2706 26425.4
 18 10 2016  14 33  -15.5187 26212.9   3344.8   7.2718 26425.5
 18 10 2016  14 34  -15.5197 26213.0   3342.8   7.2673 26425.3
 18 10 2016  14 35  -15.5194 26213.3   3343.6   7.2691 26425.7
 18 10 2016  14 36  -15.5193 26213.6   3342.6   7.2667 26425.9
 18 10 2016  14 37  -15.5180 26213.9   3343.4   7.2684 26426.2
 18 10 2016  14 38  -15.5187 26213.1   3342.8   7.2673 26425.4
 18 10 2016  14 39  -15.5188 26212.9   3341.6   7.2648 26425.1
 18 10 2016  14 40  -15.5172 26213.3   3342.0   7.2655 26425.5
 18 10 2016  14 41  -15.5170 26213.2   3342.5   7.2667 26425.4
 18 10 2016  14 42  -15.5174 26213.5   3342.4   7.2664 26425.7
 18 10 2016  14 43  -15.5174 26213.9   3342.5   7.2664 26426.2
 18 10 2016  14 44  -15.5166 26214.2   3342.4   7.2663 26426.4
 18 10 2016  14 45  -15.5170 26214.9   3342.8   7.2670 26427.1
 18 10 2016  14 46  -15.5165 26215.9   3342.7   7.2665 26428.1
 18 10 2016  14 47  -15.5166 26216.2   3342.0   7.2647 26428.4
 18 10 2016  14 48  -15.5160 26216.8   3342.3   7.2653 26429.0
 18 10 2016  14 49  -15.5162 26217.5   3341.0   7.2622 26429.5
 18 10 2016  14 50  -15.5158 26217.7   3340.7   7.2616 26429.7
 18 10 2016  14 51  -15.5158 26217.5   3340.3   7.2609 26429.4
 18 10 2016  14 52  -15.5164 26216.6   3340.4   7.2612 26428.6
 18 10 2016  14 53  -15.5167 26215.6   3339.4   7.2595 26427.4
 18 10 2016  14 54  -15.5175 26215.1   3339.9   7.2605 26427.0
 18 10 2016  14 55  -15.5170 26215.4   3341.3   7.2635 26427.5
 18 10 2016  14 56  -15.5165 26215.3   3340.2   7.2613 26427.3
 18 10 2016  14 57  -15.5161 26215.2   3340.7   7.2623 26427.2
 18 10 2016  14 58  -15.5159 26215.3   3340.9   7.2626 26427.3
 18 10 2016  14 59  -15.5160 26214.8   3341.2   7.2635 26426.9
 18 10 2016  15 00  -15.5158 26214.1   3340.0   7.2612 26426.0
 18 10 2016  15 01  -15.5166 26213.3   3340.0   7.2613 26425.2
 18 10 2016  15 02  -15.5156 26213.2   3340.4   7.2622 26425.2
 18 10 2016  15 03  -15.5150 26213.0   3340.7   7.2629 26425.0
 18 10 2016  15 04  -15.5153 26212.5   3341.2   7.2642 26424.6
 18 10 2016  15 05  -15.5153 26212.0   3340.5   7.2628 26424.0
 18 10 2016  15 06  -15.5144 26211.5   3341.6   7.2652 26423.7
 18 10 2016  15 07  -15.5141 26211.1   3341.6   7.2654 26423.2
 18 10 2016  15 08  -15.5144 26209.9   3341.7   7.2658 26422.1
 18 10 2016  15 09  -15.5144 26208.9   3342.0   7.2668 26421.1
 18 10 2016  15 10  -15.5140 26208.9   3342.3   7.2675 26421.2
 18 10 2016  15 11  -15.5137 26209.2   3343.2   7.2692 26421.6
 18 10 2016  15 12  -15.5135 26209.4   3343.9   7.2707 26421.8
 18 10 2016  15 13  -15.5134 26209.0   3343.6   7.2702 26421.5
 18 10 2016  15 14  -15.5135 26208.5   3343.6   7.2704 26420.9
 18 10 2016  15 15  -15.5137 26207.8   3343.9   7.2712 26420.2
 18 10 2016  15 16  -15.5136 26207.1   3343.8   7.2711 26419.5
 18 10 2016  15 17  -15.5140 26206.3   3345.0   7.2739 26418.9
 18 10 2016  15 18  -15.5142 26205.9   3344.7   7.2734 26418.5
 18 10 2016  15 19  -15.5139 26205.3   3345.2   7.2746 26418.0
 18 10 2016  15 20  -15.5130 26205.0   3346.3   7.2771 26417.8
 18 10 2016  15 21  -15.5132 26204.6   3346.7   7.2780 26417.4
 18 10 2016  15 22  -15.5134 26204.5   3346.9   7.2785 26417.4
 18 10 2016  15 23  -15.5139 26204.2   3346.5   7.2777 26417.1
 18 10 2016  15 24  -15.5141 26204.0   3347.3   7.2796 26416.9
 18 10 2016  15 25  -15.5136 26203.6   3348.6   7.2824 26416.7
 18 10 2016  15 26  -15.5133 26203.1   3349.2   7.2838 26416.3
 18 10 2016  15 27  -15.5139 26202.4   3348.5   7.2827 26415.5
 18 10 2016  15 28  -15.5145 26201.6   3348.7   7.2833 26414.8
 18 10 2016  15 29  -15.5143 26201.1   3348.4   7.2828 26414.2
 18 10 2016  15 30  -15.5148 26200.4   3348.5   7.2832 26413.5
 18 10 2016  15 31  -15.5144 26200.1   3348.9   7.2840 26413.2
 18 10 2016  15 32  -15.5148 26199.6   3350.5   7.2876 26413.0
 18 10 2016  15 33  -15.5150 26199.6   3350.1   7.2868 26412.9
 18 10 2016  15 34  -15.5152 26199.6   3350.3   7.2872 26412.9
 18 10 2016  15 35  -15.5152 26199.4   3351.0   7.2888 26412.8
 18 10 2016  15 36  -15.5153 26199.3   3351.3   7.2894 26412.8
 18 10 2016  15 37  -15.5157 26199.2   3352.0   7.2910 26412.8
 18 10 2016  15 38  -15.5160 26199.0   3352.3   7.2917 26412.6
 18 10 2016  15 39  -15.5163 26198.6   3352.4   7.2920 26412.2
 18 10 2016  15 40  -15.5158 26198.6   3352.6   7.2925 26412.3
 18 10 2016  15 41  -15.5171 26197.8   3352.7   7.2929 26411.4
 18 10 2016  15 42  -15.5169 26197.6   3352.7   7.2930 26411.3
 18 10 2016  15 43  -15.5168 26197.0   3352.6   7.2929 26410.6
 18 10 2016  15 44  -15.5171 26196.3   3353.2   7.2943 26410.1
 18 10 2016  15 45  -15.5178 26196.0   3352.7   7.2933 26409.7
 18 10 2016  15 46  -15.5183 26195.4   3353.0   7.2943 26409.1
 18 10 2016  15 47  -15.5182 26194.9   3353.5   7.2954 26408.7
 18 10 2016  15 48  -15.5184 26194.1   3354.2   7.2971 26408.0
 18 10 2016  15 49  -15.5185 26193.7   3354.6   7.2980 26407.6
 18 10 2016  15 50  -15.5188 26193.4   3354.3   7.2976 26407.3
 18 10 2016  15 51  -15.5184 26193.2   3355.4   7.3000 26407.3
 18 10 2016  15 52  -15.5176 26193.3   3356.4   7.3020 26407.4
 18 10 2016  15 53  -15.5176 26193.4   3356.5   7.3024 26407.6
 18 10 2016  15 54  -15.5188 26193.5   3355.6   7.3004 26407.6
 18 10 2016  15 55  -15.5179 26193.8   3356.4   7.3019 26407.9
 18 10 2016  15 56  -15.5192 26193.2   3356.5   7.3023 26407.4
 18 10 2016  15 57  -15.5193 26193.0   3356.2   7.3018 26407.2
 18 10 2016  15 58  -15.5192 26192.4   3357.0   7.3036 26406.7
 18 10 2016  15 59  -15.5192 26191.8   3357.6   7.3051 26406.2
 18 10 2016  16 00  -15.5196 26190.9   3356.4   7.3028 26405.1
 18 10 2016  16 01  -15.5196 26190.1   3357.5   7.3053 26404.5
 18 10 2016  16 02  -15.5190 26189.7   3358.3   7.3072 26404.1
 18 10 2016  16 03  -15.5198 26188.6   3358.2   7.3074 26403.0
 18 10 2016  16 04  -15.5195 26187.5   3358.3   7.3077 26402.0
 18 10 2016  16 05  -15.5192 26186.4   3359.5   7.3106 26401.0
 18 10 2016  16 06  -15.5187 26185.9   3359.2   7.3103 26400.4
 18 10 2016  16 07  -15.5192 26185.6   3359.8   7.3114 26400.3
 18 10 2016  16 08  -15.5185 26185.6   3360.5   7.3130 26400.3
 18 10 2016  16 09  -15.5188 26184.7   3361.4   7.3152 26399.6
 18 10 2016  16 10  -15.5185 26184.8   3361.0   7.3143 26399.6
 18 10 2016  16 11  -15.5189 26184.4   3360.3   7.3129 26399.1
 18 10 2016  16 12  -15.5195 26183.4   3362.3   7.3175 26398.4
 18 10 2016  16 13  -15.5198 26182.9   3362.2   7.3174 26397.9
 18 10 2016  16 14  -15.5198 26182.7   3361.8   7.3167 26397.7
 18 10 2016  16 15  -15.5194 26182.3   3362.7   7.3187 26397.3
 18 10 2016  16 16  -15.5197 26182.1   3363.9   7.3213 26397.3
 18 10 2016  16 17  -15.5192 26182.3   3363.8   7.3210 26397.5
 18 10 2016  16 18  -15.5198 26181.2   3363.7   7.3210 26396.4
 18 10 2016  16 19  -15.5200 26180.4   3361.9   7.3174 26395.3
 18 10 2016  16 20  -15.5187 26180.4   3362.3   7.3184 26395.4
 18 10 2016  16 21  -15.5175 26181.0   3364.0   7.3217 26396.2
 18 10 2016  16 22  -15.5189 26182.9   3364.7   7.3228 26398.2
 18 10 2016  16 23  -15.5178 26184.4   3364.3   7.3216 26399.6
 18 10 2016  16 24  -15.5186 26182.9   3363.1   7.3194 26398.0
 18 10 2016  16 25  -15.5176 26182.3   3364.0   7.3214 26397.5
 18 10 2016  16 26  -15.5172 26181.2   3362.4   7.3184 26396.3
 18 10 2016  16 27  -15.5161 26181.7   3363.1   7.3197 26396.9
 18 10 2016  16 28  -15.5171 26183.2   3363.5   7.3201 26398.3
 18 10 2016  16 29  -15.5183 26182.9   3363.7   7.3208 26398.0
 18 10 2016  16 30  -15.5197 26183.2   3365.0   7.3233 26398.5
 18 10 2016  16 31  -15.5198 26184.2   3364.4   7.3218 26399.5
 18 10 2016  16 32  -15.5216 26183.4   3363.8   7.3207 26398.6
 18 10 2016  16 33  -15.5220 26181.7   3364.0   7.3217 26396.9
 18 10 2016  16 34  -15.5224 26180.2   3363.9   7.3218 26395.5
 18 10 2016  16 35  -15.5229 26179.0   3363.0   7.3202 26394.2
 18 10 2016  16 36  -15.5219 26178.3   3365.3   7.3254 26393.8
 18 10 2016  16 37  -15.5227 26177.0   3365.6   7.3263 26392.4
 18 10 2016  16 38  -15.5221 26176.5   3366.4   7.3284 26392.0
 18 10 2016  16 39  -15.5219 26176.6   3368.1   7.3318 26392.4
 18 10 2016  16 40  -15.5227 26176.3   3367.6   7.3310 26392.0
 18 10 2016  16 41  -15.5222 26175.1   3369.4   7.3351 26391.0
 18 10 2016  16 42  -15.5221 26173.6   3369.7   7.3362 26389.6
 18 10 2016  16 43  -15.5226 26172.8   3368.3   7.3333 26388.6
 18 10 2016  16 44  -15.5223 26171.2   3369.7   7.3368 26387.2
 18 10 2016  16 45  -15.5222 26169.8   3369.3   7.3363 26385.8
 18 10 2016  16 46  -15.5222 26168.1   3370.8   7.3401 26384.3
 18 10 2016  16 47  -15.5226 26168.3   3371.0   7.3405 26384.5
 18 10 2016  16 48  -15.5234 26168.4   3373.5   7.3457 26384.9
 18 10 2016  16 49  -15.5238 26167.8   3374.0   7.3471 26384.4
 18 10 2016  16 50  -15.5218 26169.0   3374.5   7.3478 26385.7
 18 10 2016  16 51  -15.5209 26170.5   3376.9   7.3526 26387.5
 18 10 2016  16 52  -15.5243 26171.1   3374.9   7.3480 26387.8
 18 10 2016  16 53  -15.5249 26168.9   3374.3   7.3473 26385.6
 18 10 2016  16 54  -15.5256 26166.3   3373.9   7.3473 26383.0
 18 10 2016  16 55  -15.5247 26167.1   3374.8   7.3490 26383.8
 18 10 2016  16 56  -15.5234 26167.3   3376.2   7.3519 26384.2
 18 10 2016  16 57  -15.5247 26166.2   3375.5   7.3506 26383.0
 18 10 2016  16 58  -15.5255 26165.1   3376.2   7.3525 26382.0
 18 10 2016  16 59  -15.5245 26164.8   3377.3   7.3549 26381.9
 18 10 2016  17 00  -15.5257 26163.9   3376.0   7.3523 26380.8
 18 10 2016  17 01  -15.5254 26162.6   3376.9   7.3548 26379.6
 18 10 2016  17 02  -15.5254 26161.3   3378.4   7.3583 26378.5
 18 10 2016  17 03  -15.5266 26160.7   3377.3   7.3561 26377.8
 18 10 2016  17 04  -15.5263 26160.6   3379.0   7.3599 26377.9
 18 10 2016  17 05  -15.5264 26160.4   3378.4   7.3584 26377.6
 18 10 2016  17 06  -15.5266 26159.3   3379.6   7.3615 26376.7
 18 10 2016  17 07  -15.5257 26159.0   3380.7   7.3639 26376.6
 18 10 2016  17 08  -15.5265 26158.8   3380.3   7.3631 26376.3
 18 10 2016  17 09  -15.5266 26158.8   3379.8   7.3619 26376.3
 18 10 2016  17 10  -15.5264 26158.2   3381.6   7.3660 26375.9
 18 10 2016  17 11  -15.5269 26158.0   3381.1   7.3651 26375.6
 18 10 2016  17 12  -15.5272 26158.1   3380.9   7.3645 26375.7
 18 10 2016  17 13  -15.5275 26158.3   3381.8   7.3665 26376.0
 18 10 2016  17 14  -15.5272 26158.9   3383.3   7.3694 26376.8
 18 10 2016  17 15  -15.5272 26159.2   3383.1   7.3691 26377.1
 18 10 2016  17 16  -15.5276 26158.6   3382.8   7.3685 26376.4
 18 10 2016  17 17  -15.5271 26157.9   3383.9   7.3712 26375.8
 18 10 2016  17 18  -15.5281 26156.9   3382.4   7.3682 26374.7
 18 10 2016  17 19  -15.5284 26156.3   3382.3   7.3680 26374.1
 18 10 2016  17 20  -15.5284 26156.0   3383.0   7.3696 26373.8
 18 10 2016  17 21  -15.5286 26155.7   3383.5   7.3707 26373.6
 18 10 2016  17 22  -15.5282 26155.4   3384.0   7.3720 26373.4
 18 10 2016  17 23  -15.5278 26154.7   3383.9   7.3720 26372.7
 18 10 2016  17 24  -15.5274 26154.4   3385.0   7.3746 26372.5
 18 10 2016  17 25  -15.5275 26154.4   3386.1   7.3768 26372.7
 18 10 2016  17 26  -15.5292 26154.7   3384.1   7.3725 26372.7
 18 10 2016  17 27  -15.5281 26154.9   3385.5   7.3754 26373.1
 18 10 2016  17 28  -15.5285 26154.5   3386.0   7.3765 26372.8
 18 10 2016  17 29  -15.5291 26154.0   3384.9   7.3742 26372.2
 18 10 2016  17 30  -15.5290 26153.8   3385.3   7.3752 26372.0
 18 10 2016  17 31  -15.5289 26153.8   3385.5   7.3757 26372.1
 18 10 2016  17 32  -15.5290 26153.3   3386.8   7.3785 26371.7
 18 10 2016  17 33  -15.5290 26152.9   3387.2   7.3795 26371.4
 18 10 2016  17 34  -15.5289 26152.3   3386.6   7.3784 26370.7
 18 10 2016  17 35  -15.5281 26151.6   3387.4   7.3804 26370.1
 18 10 2016  17 36  -15.5286 26151.2   3387.5   7.3808 26369.7
 18 10 2016  17 37  -15.5289 26150.8   3386.4   7.3786 26369.1
 18 10 2016  17 38  -15.5280 26150.0   3388.5   7.3833 26368.6
 18 10 2016  17 39  -15.5286 26149.5   3388.1   7.3824 26368.0
 18 10 2016  17 40  -15.5278 26149.2   3387.6   7.3814 26367.7
 18 10 2016  17 41  -15.5268 26148.7   3387.8   7.3820 26367.3
 18 10 2016  17 42  -15.5281 26147.8   3387.2   7.3811 26366.3
 18 10 2016  17 43  -15.5273 26147.5   3389.0   7.3851 26366.3
 18 10 2016  17 44  -15.5277 26147.5   3388.4   7.3837 26366.2
 18 10 2016  17 45  -15.5266 26147.2   3388.9   7.3849 26365.9
 18 10 2016  17 46  -15.5266 26146.5   3390.1   7.3877 26365.3
 18 10 2016  17 47  -15.5261 26146.5   3389.2   7.3856 26365.2
 18 10 2016  17 48  -15.5254 26146.5   3389.4   7.3861 26365.2
 18 10 2016  17 49  -15.5243 26146.3   3390.7   7.3889 26365.3
 18 10 2016  17 50  -15.5247 26145.9   3390.2   7.3880 26364.8
 18 10 2016  17 51  -15.5251 26145.6   3389.2   7.3859 26364.3
 18 10 2016  17 52  -15.5249 26145.2   3390.6   7.3892 26364.1
 18 10 2016  17 53  -15.5242 26145.0   3391.8   7.3917 26364.1
 18 10 2016  17 54  -15.5243 26144.9   3390.1   7.3882 26363.8
 18 10 2016  17 55  -15.5234 26144.6   3391.9   7.3920 26363.7
 18 10 2016  17 56  -15.5235 26144.5   3390.7   7.3896 26363.5
 18 10 2016  17 57  -15.5239 26144.2   3391.0   7.3901 26363.2
 18 10 2016  17 58  -15.5230 26144.2   3391.1   7.3905 26363.2
 18 10 2016  17 59  -15.5226 26144.2   3390.7   7.3896 26363.2
 18 10 2016  18 00  -15.5210 26144.5   3390.8   7.3897 26363.5
 18 10 2016  18 01  -15.5204 26144.1   3391.6   7.3916 26363.2
 18 10 2016  18 02  -15.5200 26142.8   3389.4   7.3871 26361.5
 18 10 2016  18 03  -15.5202 26141.7   3388.9   7.3864 26360.4
 18 10 2016  18 04  -15.5196 26141.1   3390.7   7.3904 26360.1
 18 10 2016  18 05  -15.5190 26141.0   3390.8   7.3907 26360.0
 18 10 2016  18 06  -15.5192 26140.6   3390.2   7.3895 26359.6
 18 10 2016  18 07  -15.5187 26140.3   3390.9   7.3910 26359.3
 18 10 2016  18 08  -15.5204 26140.0   3389.3   7.3877 26358.8
 18 10 2016  18 09  -15.5203 26139.8   3389.7   7.3886 26358.7
 18 10 2016  18 10  -15.5194 26139.6   3389.2   7.3876 26358.4
 18 10 2016  18 11  -15.5195 26139.3   3390.7   7.3909 26358.3
 18 10 2016  18 12  -15.5196 26139.5   3389.7   7.3888 26358.4
 18 10 2016  18 13  -15.5204 26139.3   3391.1   7.3918 26358.3
 18 10 2016  18 14  -15.5206 26139.4   3391.1   7.3918 26358.4
 18 10 2016  18 15  -15.5197 26140.3   3391.1   7.3914 26359.4
 18 10 2016  18 16  -15.5194 26141.0   3391.8   7.3928 26360.1
 18 10 2016  18 17  -15.5202 26141.0   3391.1   7.3914 26360.1
 18 10 2016  18 18  -15.5193 26140.7   3391.1   7.3914 26359.7
 18 10 2016  18 19  -15.5200 26140.0   3389.3   7.3877 26358.8
 18 10 2016  18 20  -15.5207 26139.2   3389.0   7.3873 26357.9
 18 10 2016  18 21  -15.5198 26138.4   3390.3   7.3903 26357.4
 18 10 2016  18 22  -15.5196 26138.0   3390.3   7.3904 26357.0
 18 10 2016  18 23  -15.5200 26137.8   3389.8   7.3894 26356.7
 18 10 2016  18 24  -15.5192 26137.7   3391.8   7.3937 26356.8
 18 10 2016  18 25  -15.5195 26137.8   3390.5   7.3908 26356.8
 18 10 2016  18 26  -15.5205 26137.8   3390.5   7.3908 26356.8
 18 10 2016  18 27  -15.5190 26138.3   3391.6   7.3931 26357.4
 18 10 2016  18 28  -15.5205 26137.7   3390.3   7.3906 26356.7
 18 10 2016  18 29  -15.5202 26136.8   3390.5   7.3912 26355.8
 18 10 2016  18 30  -15.5191 26136.2   3392.5   7.3956 26355.5
 18 10 2016  18 31  -15.5206 26135.4   3390.0   7.3905 26354.3
 18 10 2016  18 32  -15.5200 26134.7   3391.5   7.3939 26353.8
 18 10 2016  18 33  -15.5204 26134.0   3390.2   7.3914 26353.0
 18 10 2016  18 34  -15.5192 26133.8   3391.8   7.3949 26353.0
 18 10 2016  18 35  -15.5189 26134.0   3391.3   7.3938 26353.2
 18 10 2016  18 36  -15.5187 26134.3   3392.5   7.3962 26353.5
 18 10 2016  18 37  -15.5184 26134.6   3392.2   7.3955 26353.8
 18 10 2016  18 38  -15.5182 26135.1   3391.7   7.3943 26354.2
 18 10 2016  18 39  -15.5189 26135.2   3392.1   7.3951 26354.4
 18 10 2016  18 40  -15.5193 26135.1   3392.6   7.3962 26354.3
 18 10 2016  18 41  -15.5183 26135.0   3393.5   7.3983 26354.4
 18 10 2016  18 42  -15.5190 26134.5   3392.8   7.3967 26353.8
 18 10 2016  18 43  -15.5185 26134.4   3391.9   7.3949 26353.5
 18 10 2016  18 44  -15.5189 26133.8   3391.9   7.3951 26353.0
 18 10 2016  18 45  -15.5190 26133.6   3392.8   7.3970 26352.9
 18 10 2016  18 46  -15.5192 26133.7   3391.9   7.3950 26352.9
 18 10 2016  18 47  -15.5192 26133.6   3391.6   7.3945 26352.8
 18 10 2016  18 48  -15.5193 26133.2   3393.4   7.3984 26352.6
 18 10 2016  18 49  -15.5197 26132.9   3392.0   7.3956 26352.1
 18 10 2016  18 50  -15.5185 26133.0   3393.0   7.3977 26352.4
 18 10 2016  18 51  -15.5186 26132.8   3393.4   7.3985 26352.2
 18 10 2016  18 52  -15.5187 26133.3   3392.4   7.3962 26352.5
 18 10 2016  18 53  -15.5184 26133.3   3394.3   7.4003 26352.8
 18 10 2016  18 54  -15.5190 26132.7   3394.2   7.4004 26352.2
 18 10 2016  18 55  -15.5192 26132.5   3392.7   7.3972 26351.8
 18 10 2016  18 56  -15.5204 26132.1   3391.9   7.3956 26351.3
 18 10 2016  18 57  -15.5187 26132.3   3394.5   7.4011 26351.9
 18 10 2016  18 58  -15.5189 26132.9   3393.5   7.3988 26352.3
 18 10 2016  18 59  -15.5188 26133.1   3394.0   7.3998 26352.6
 18 10 2016  19 00  -15.5183 26133.7   3392.6   7.3966 26353.0
 18 10 2016  19 01  -15.5180 26133.7   3394.1   7.3998 26353.2
 18 10 2016  19 02  -15.5170 26133.8   3393.5   7.3984 26353.2
 18 10 2016  19 03  -15.5168 26133.8   3394.2   7.4000 26353.3
 18 10 2016  19 04  -15.5171 26133.6   3393.9   7.3995 26353.0
 18 10 2016  19 05  -15.5165 26133.6   3394.7   7.4011 26353.2
 18 10 2016  19 06  -15.5158 26133.6   3394.0   7.3996 26353.1
 18 10 2016  19 07  -15.5162 26133.3   3392.8   7.3972 26352.7
 18 10 2016  19 08  -15.5155 26133.2   3394.6   7.4011 26352.8
 18 10 2016  19 09  -15.5163 26132.7   3392.9   7.3975 26352.1
 18 10 2016  19 10  -15.5160 26132.6   3392.2   7.3960 26351.8
 18 10 2016  19 11  -15.5162 26132.2   3392.1   7.3959 26351.4
 18 10 2016  19 12  -15.5164 26131.3   3391.9   7.3957 26350.6
 18 10 2016  19 13  -15.5163 26130.4   3392.0   7.3962 26349.7
 18 10 2016  19 14  -15.5171 26129.4   3393.6   7.3999 26348.8
 18 10 2016  19 15  -15.5172 26129.7   3393.8   7.4003 26349.2
 18 10 2016  19 16  -15.5161 26130.4   3394.8   7.4023 26350.0
 18 10 2016  19 17  -15.5166 26130.7   3394.2   7.4009 26350.3
 18 10 2016  19 18  -15.5161 26130.9   3395.5   7.4036 26350.6
 18 10 2016  19 19  -15.5151 26131.5   3394.9   7.4023 26351.1
 18 10 2016  19 20  -15.5150 26131.8   3395.6   7.4037 26351.5
 18 10 2016  19 21  -15.5150 26131.5   3396.4   7.4055 26351.3
 18 10 2016  19 22  -15.5153 26131.1   3395.5   7.4037 26350.8
 18 10 2016  19 23  -15.5149 26130.9   3394.3   7.4011 26350.4
 18 10 2016  19 24  -15.5156 26130.3   3393.8   7.4001 26349.8
 18 10 2016  19 25  -15.5155 26130.1   3394.9   7.4026 26349.7
 18 10 2016  19 26  -15.5154 26130.4   3394.7   7.4020 26349.9
 18 10 2016  19 27  -15.5157 26130.4   3394.5   7.4017 26350.0
 18 10 2016  19 28  -15.5153 26130.4   3394.7   7.4022 26350.0
 18 10 2016  19 29  -15.5158 26130.0   3394.9   7.4025 26349.6
 18 10 2016  19 30  -15.5158 26129.8   3394.9   7.4027 26349.4
 18 10 2016  19 31  -15.5153 26129.8   3394.5   7.4018 26349.4
 18 10 2016  19 32  -15.5141 26130.2   3394.9   7.4025 26349.8
 18 10 2016  19 33  -15.5148 26129.9   3394.6   7.4019 26349.5
 18 10 2016  19 34  -15.5140 26129.9   3396.0   7.4050 26349.6
 18 10 2016  19 35  -15.5133 26130.0   3394.9   7.4026 26349.6
 18 10 2016  19 36  -15.5145 26129.7   3393.6   7.3999 26349.2
 18 10 2016  19 37  -15.5144 26129.5   3394.9   7.4028 26349.1
 18 10 2016  19 38  -15.5141 26129.4   3395.4   7.4038 26349.1
 18 10 2016  19 39  -15.5144 26129.3   3395.9   7.4049 26349.0
 18 10 2016  19 40  -15.5140 26129.2   3395.4   7.4039 26348.9
 18 10 2016  19 41  -15.5134 26129.7   3396.0   7.4050 26349.4
 18 10 2016  19 42  -15.5147 26129.4   3394.8   7.4026 26349.0
 18 10 2016  19 43  -15.5138 26129.5   3396.1   7.4053 26349.3
 18 10 2016  19 44  -15.5135 26129.5   3396.0   7.4052 26349.3
 18 10 2016  19 45  -15.5134 26129.4   3395.4   7.4037 26349.1
 18 10 2016  19 46  -15.5126 26129.2   3396.9   7.4071 26349.1
 18 10 2016  19 47  -15.5133 26129.0   3395.8   7.4049 26348.7
 18 10 2016  19 48  -15.5137 26128.9   3395.7   7.4047 26348.6
 18 10 2016  19 49  -15.5125 26129.0   3395.9   7.4050 26348.7
 18 10 2016  19 50  -15.5123 26128.7   3397.4   7.4084 26348.6
 18 10 2016  19 51  -15.5120 26128.7   3396.2   7.4058 26348.5
 18 10 2016  19 52  -15.5129 26128.4   3394.2   7.4016 26347.9
 18 10 2016  19 53  -15.5121 26128.4   3394.9   7.4030 26348.0
 18 10 2016  19 54  -15.5126 26128.1   3395.5   7.4044 26347.8
 18 10 2016  19 55  -15.5121 26128.2   3395.8   7.4051 26347.9
 18 10 2016  19 56  -15.5120 26128.3   3395.2   7.4037 26347.9
 18 10 2016  19 57  -15.5121 26128.1   3395.6   7.4047 26347.8
 18 10 2016  19 58  -15.5109 26128.1   3397.1   7.4080 26348.1
 18 10 2016  19 59  -15.5122 26127.9   3395.5   7.4044 26347.7
 18 10 2016  20 00  -15.5111 26128.1   3396.7   7.4070 26348.0
 18 10 2016  20 01  -15.5105 26128.4   3396.9   7.4073 26348.3
 18 10 2016  20 02  -15.5103 26128.7   3396.5   7.4064 26348.6
 18 10 2016  20 03  -15.5105 26128.9   3396.4   7.4062 26348.7
 18 10 2016  20 04  -15.5101 26129.0   3397.0   7.4075 26348.9
 18 10 2016  20 05  -15.5106 26128.9   3396.6   7.4065 26348.7
 18 10 2016  20 06  -15.5098 26129.1   3396.4   7.4061 26348.9
 18 10 2016  20 07  -15.5094 26128.5   3397.4   7.4085 26348.5
 18 10 2016  20 08  -15.5099 26127.8   3396.2   7.4059 26347.6
 18 10 2016  20 09  -15.5101 26127.3   3396.8   7.4074 26347.2
 18 10 2016  20 10  -15.5090 26127.5   3398.3   7.4107 26347.6
 18 10 2016  20 11  -15.5096 26127.3   3397.4   7.4088 26347.3
 18 10 2016  20 12  -15.5093 26127.2   3396.5   7.4067 26347.0
 18 10 2016  20 13  -15.5099 26126.9   3395.7   7.4052 26346.7
 18 10 2016  20 14  -15.5090 26127.0   3396.7   7.4074 26346.8
 18 10 2016  20 15  -15.5097 26126.9   3398.1   7.4104 26346.9
 18 10 2016  20 16  -15.5096 26127.3   3397.0   7.4079 26347.3
 18 10 2016  20 17  -15.5087 26127.9   3398.8   7.4115 26348.0
 18 10 2016  20 18  -15.5086 26128.2   3398.6   7.4112 26348.3
 18 10 2016  20 19  -15.5084 26128.5   3399.1   7.4120 26348.6
 18 10 2016  20 20  -15.5078 26128.7   3400.3   7.4145 26349.0
 18 10 2016  20 21  -15.5080 26129.3   3398.7   7.4110 26349.4
 18 10 2016  20 22  -15.5084 26129.2   3398.5   7.4106 26349.2
 18 10 2016  20 23  -15.5084 26128.5   3399.8   7.4137 26348.8
 18 10 2016  20 24  -15.5082 26127.8   3399.2   7.4125 26348.0
 18 10 2016  20 25  -15.5088 26127.3   3398.4   7.4110 26347.4
 18 10 2016  20 26  -15.5087 26127.4   3397.4   7.4087 26347.3
 18 10 2016  20 27  -15.5073 26128.2   3400.0   7.4142 26348.5
 18 10 2016  20 28  -15.5081 26129.0   3400.7   7.4153 26349.4
 18 10 2016  20 29  -15.5072 26129.7   3401.2   7.4164 26350.1
 18 10 2016  20 30  -15.5077 26129.9   3400.4   7.4146 26350.2
 18 10 2016  20 31  -15.5085 26129.6   3401.1   7.4161 26350.0
 18 10 2016  20 32  -15.5083 26129.2   3401.0   7.4159 26349.6
 18 10 2016  20 33  -15.5090 26129.3   3398.7   7.4109 26349.4
 18 10 2016  20 34  -15.5081 26129.4   3401.1   7.4162 26349.8
 18 10 2016  20 35  -15.5087 26129.5   3400.7   7.4152 26349.8
 18 10 2016  20 36  -15.5086 26129.6   3400.8   7.4155 26350.0
 18 10 2016  20 37  -15.5086 26129.5   3400.5   7.4149 26349.8
 18 10 2016  20 38  -15.5086 26129.4   3399.7   7.4132 26349.6
 18 10 2016  20 39  -15.5080 26129.5   3400.0   7.4138 26349.8
 18 10 2016  20 40  -15.5059 26130.1   3401.2   7.4160 26350.5
 18 10 2016  20 41  -15.5061 26130.6   3400.5   7.4145 26351.0
 18 10 2016  20 42  -15.5065 26130.4   3400.3   7.4141 26350.7
 18 10 2016  20 43  -15.5064 26129.8   3401.1   7.4160 26350.2
 18 10 2016  20 44  -15.5063 26130.0   3399.7   7.4129 26350.2
 18 10 2016  20 45  -15.5049 26130.1   3401.0   7.4158 26350.5
 18 10 2016  20 46  -15.5049 26130.0   3401.4   7.4165 26350.4
 18 10 2016  20 47  -15.5064 26129.8   3400.1   7.4140 26350.1
 18 10 2016  20 48  -15.5066 26129.6   3401.0   7.4159 26350.0
 18 10 2016  20 49  -15.5048 26130.2   3402.6   7.4190 26350.8
 18 10 2016  20 50  -15.5055 26130.4   3400.3   7.4142 26350.7
 18 10 2016  20 51  -15.5052 26130.4   3400.5   7.4145 26350.7
 18 10 2016  20 52  -15.5054 26130.1   3401.1   7.4159 26350.5
 18 10 2016  20 53  -15.5052 26130.2   3401.4   7.4165 26350.6
 18 10 2016  20 54  -15.5037 26130.2   3403.3   7.4206 26350.9
 18 10 2016  20 55  -15.5036 26130.6   3401.4   7.4165 26351.0
 18 10 2016  20 56  -15.5029 26130.6   3402.5   7.4188 26351.2
 18 10 2016  20 57  -15.5024 26130.7   3403.0   7.4198 26351.4
 18 10 2016  20 58  -15.5019 26130.8   3403.5   7.4210 26351.5
 18 10 2016  20 59  -15.5026 26130.2   3402.3   7.4186 26350.8
 18 10 2016  21 00  -15.5015 26131.1   3402.7   7.4190 26351.7
 18 10 2016  21 01  -15.5020 26131.5   3401.7   7.4169 26352.0
 18 10 2016  21 02  -15.5010 26131.6   3403.6   7.4210 26352.3
 18 10 2016  21 03  -15.5012 26131.7   3402.4   7.4182 26352.2
 18 10 2016  21 04  -15.5008 26131.7   3403.1   7.4197 26352.3
 18 10 2016  21 05  -15.5009 26132.1   3401.7   7.4167 26352.6
 18 10 2016  21 06  -15.5000 26132.2   3403.1   7.4196 26352.9
 18 10 2016  21 07  -15.5001 26131.9   3402.7   7.4188 26352.5
 18 10 2016  21 08  -15.4996 26131.9   3402.5   7.4183 26352.5
 18 10 2016  21 09  -15.4996 26131.8   3402.4   7.4183 26352.4
 18 10 2016  21 10  -15.4999 26131.6   3401.7   7.4167 26352.1
 18 10 2016  21 11  -15.4997 26131.3   3401.6   7.4167 26351.8
 18 10 2016  21 12  -15.4999 26130.7   3401.5   7.4167 26351.1
 18 10 2016  21 13  -15.4994 26130.1   3402.8   7.4195 26350.8
 18 10 2016  21 14  -15.4993 26130.4   3402.4   7.4187 26350.9
 18 10 2016  21 15  -15.4988 26130.6   3402.3   7.4183 26351.2
 18 10 2016  21 16  -15.4981 26130.7   3402.9   7.4196 26351.4
 18 10 2016  21 17  -15.4989 26130.5   3402.2   7.4182 26351.1
 18 10 2016  21 18  -15.4994 26130.6   3400.7   7.4148 26351.0
 18 10 2016  21 19  -15.4982 26130.8   3401.5   7.4165 26351.3
 18 10 2016  21 20  -15.4975 26130.8   3401.7   7.4170 26351.2
 18 10 2016  21 21  -15.4985 26130.4   3400.5   7.4146 26350.7
 18 10 2016  21 22  -15.4979 26130.4   3401.4   7.4164 26350.9
 18 10 2016  21 23  -15.4983 26130.5   3400.4   7.4144 26350.9
 18 10 2016  21 24  -15.4982 26130.6   3400.7   7.4148 26351.0
 18 10 2016  21 25  -15.4978 26130.7   3401.9   7.4175 26351.2
 18 10 2016  21 26  -15.4979 26130.8   3401.5   7.4166 26351.2
 18 10 2016  21 27  -15.4978 26130.8   3401.1   7.4158 26351.2
 18 10 2016  21 28  -15.4980 26130.9   3400.5   7.4144 26351.2
 18 10 2016  21 29  -15.4978 26131.1   3401.0   7.4155 26351.5
 18 10 2016  21 30  -15.4979 26131.6   3400.8   7.4148 26352.0
 18 10 2016  21 31  -15.4974 26131.3   3400.7   7.4147 26351.7
 18 10 2016  21 32  -15.4988 26130.3   3399.3   7.4120 26350.4
 18 10 2016  21 33  -15.4981 26129.9   3401.0   7.4159 26350.3
 18 10 2016  21 34  -15.4974 26130.2   3401.3   7.4164 26350.7
 18 10 2016  21 35  -15.4992 26129.9   3399.4   7.4123 26350.1
 18 10 2016  21 36  -15.4994 26129.7   3399.7   7.4130 26349.9
 18 10 2016  21 37  -15.4986 26129.6   3398.7   7.4109 26349.7
 18 10 2016  21 38  -15.4984 26129.5   3399.4   7.4124 26349.7
 18 10 2016  21 39  -15.4992 26129.5   3399.6   7.4129 26349.7
 18 10 2016  21 40  -15.5006 26129.4   3399.1   7.4118 26349.6
 18 10 2016  21 41  -15.4999 26129.8   3398.7   7.4109 26349.9
 18 10 2016  21 42  -15.5001 26130.0   3399.8   7.4132 26350.2
 18 10 2016  21 43  -15.5001 26130.9   3399.2   7.4116 26351.1
 18 10 2016  21 44  -15.4988 26132.1   3401.2   7.4156 26352.5
 18 10 2016  21 45  -15.4983 26130.5   3401.3   7.4164 26350.9
 18 10 2016  21 46  -15.4992 26130.6   3400.8   7.4152 26350.9
 18 10 2016  21 47  -15.4996 26131.4   3400.3   7.4138 26351.7
 18 10 2016  21 48  -15.4993 26132.3   3401.3   7.4157 26352.8
 18 10 2016  21 49  -15.4983 26132.7   3400.2   7.4133 26352.9
 18 10 2016  21 50  -15.4992 26131.8   3399.4   7.4118 26352.0
 18 10 2016  21 51  -15.4980 26131.1   3401.2   7.4159 26351.6
 18 10 2016  21 52  -15.4984 26131.0   3400.0   7.4134 26351.3
 18 10 2016  21 53  -15.4984 26131.0   3399.9   7.4132 26351.2
 18 10 2016  21 54  -15.4987 26131.2   3399.7   7.4126 26351.4
 18 10 2016  21 55  -15.4991 26131.0   3400.2   7.4138 26351.3
 18 10 2016  21 56  -15.5012 26130.6   3399.7   7.4127 26350.8
 18 10 2016  21 57  -15.5009 26130.9   3400.1   7.4135 26351.2
 18 10 2016  21 58  -15.5011 26131.5   3400.8   7.4149 26351.9
 18 10 2016  21 59  -15.5016 26132.5   3401.3   7.4157 26353.0
 18 10 2016  22 00  -15.5019 26132.9   3402.1   7.4173 26353.4
 18 10 2016  22 01  -15.5033 26133.8   3400.6   7.4138 26354.1
 18 10 2016  22 02  -15.5023 26134.7   3401.9   7.4163 26355.2
 18 10 2016  22 03  -15.5023 26134.8   3402.9   7.4184 26355.4
 18 10 2016  22 04  -15.5034 26134.2   3400.5   7.4135 26354.5
 18 10 2016  22 05  -15.5030 26133.5   3399.5   7.4115 26353.7
 18 10 2016  22 06  -15.5039 26132.8   3399.2   7.4110 26352.9
 18 10 2016  22 07  -15.5026 26132.4   3400.7   7.4143 26352.7
 18 10 2016  22 08  -15.5016 26132.6   3399.7   7.4123 26352.8
 18 10 2016  22 09  -15.5016 26132.6   3399.9   7.4126 26352.9
 18 10 2016  22 10  -15.5020 26132.3   3401.4   7.4160 26352.7
 18 10 2016  22 11  -15.5031 26132.4   3398.9   7.4107 26352.5
 18 10 2016  22 12  -15.5025 26131.8   3400.7   7.4146 26352.2
 18 10 2016  22 13  -15.5023 26130.8   3400.8   7.4150 26351.2
 18 10 2016  22 14  -15.5028 26131.3   3400.6   7.4145 26351.7
 18 10 2016  22 15  -15.5026 26131.6   3400.1   7.4132 26351.9
 18 10 2016  22 16  -15.5038 26131.1   3400.1   7.4135 26351.3
 18 10 2016  22 17  -15.5020 26131.3   3401.5   7.4164 26351.8
 18 10 2016  22 18  -15.5033 26130.6   3400.0   7.4134 26350.8
 18 10 2016  22 19  -15.5026 26130.5   3402.0   7.4178 26351.0
 18 10 2016  22 20  -15.5019 26131.2   3401.8   7.4172 26351.7
 18 10 2016  22 21  -15.5025 26131.1   3402.6   7.4188 26351.7
 18 10 2016  22 22  -15.5038 26131.0   3401.4   7.4163 26351.5
 18 10 2016  22 23  -15.5023 26131.3   3402.2   7.4179 26351.8
 18 10 2016  22 24  -15.5041 26130.6   3400.5   7.4145 26350.9
 18 10 2016  22 25  -15.5024 26130.3   3402.4   7.4187 26350.8
 18 10 2016  22 26  -15.5039 26129.8   3401.1   7.4161 26350.2
 18 10 2016  22 27  -15.5045 26129.7   3400.4   7.4145 26350.0
 18 10 2016  22 28  -15.5041 26130.0   3400.4   7.4144 26350.3
 18 10 2016  22 29  -15.5041 26129.7   3401.0   7.4158 26350.1
 18 10 2016  22 30  -15.5027 26130.0   3401.4   7.4166 26350.4
 18 10 2016  22 31  -15.5027 26130.0   3402.4   7.4188 26350.6
 18 10 2016  22 32  -15.5029 26130.2   3402.6   7.4192 26350.8
 18 10 2016  22 33  -15.5031 26130.1   3403.0   7.4200 26350.7
 18 10 2016  22 34  -15.5048 26129.9   3401.2   7.4162 26350.3
 18 10 2016  22 35  -15.5047 26129.7   3401.0   7.4158 26350.1
 18 10 2016  22 36  -15.5043 26129.6   3400.7   7.4152 26350.0
 18 10 2016  22 37  -15.5037 26129.2   3401.9   7.4180 26349.7
 18 10 2016  22 38  -15.5041 26128.5   3401.6   7.4175 26349.0
 18 10 2016  22 39  -15.5045 26128.3   3399.6   7.4132 26348.5
 18 10 2016  22 40  -15.5030 26128.5   3401.7   7.4176 26349.0
 18 10 2016  22 41  -15.5035 26128.0   3402.8   7.4202 26348.7
 18 10 2016  22 42  -15.5035 26128.1   3402.8   7.4202 26348.8
 18 10 2016  22 43  -15.5037 26128.5   3402.1   7.4185 26349.1
 18 10 2016  22 44  -15.5047 26128.3   3402.9   7.4203 26348.9
 18 10 2016  22 45  -15.5048 26128.1   3402.3   7.4190 26348.7
 18 10 2016  22 46  -15.5032 26128.3   3402.8   7.4202 26349.0
 18 10 2016  22 47  -15.5053 26127.6   3400.2   7.4147 26347.9
 18 10 2016  22 48  -15.5057 26126.9   3401.5   7.4177 26347.4
 18 10 2016  22 49  -15.5057 26126.8   3401.2   7.4172 26347.2
 18 10 2016  22 50  -15.5051 26127.1   3401.4   7.4174 26347.6
 18 10 2016  22 51  -15.5053 26127.2   3402.9   7.4207 26347.8
 18 10 2016  22 52  -15.5059 26127.4   3402.1   7.4189 26348.0
 18 10 2016  22 53  -15.5054 26127.7   3402.5   7.4196 26348.3
 18 10 2016  22 54  -15.5047 26128.5   3404.5   7.4238 26349.3
 18 10 2016  22 55  -15.5061 26128.8   3403.0   7.4203 26349.5
 18 10 2016  22 56  -15.5071 26128.2   3402.6   7.4196 26348.9
 18 10 2016  22 57  -15.5076 26127.9   3401.9   7.4183 26348.4
 18 10 2016  22 58  -15.5065 26128.1   3402.8   7.4202 26348.8
 18 10 2016  22 59  -15.5065 26128.3   3403.1   7.4208 26349.0
 18 10 2016  23 00  -15.5056 26128.4   3401.2   7.4167 26348.9
 18 10 2016  23 01  -15.5038 26128.4   3402.8   7.4202 26349.1
 18 10 2016  23 02  -15.5040 26128.2   3403.4   7.4214 26348.9
 18 10 2016  23 03  -15.5041 26127.8   3402.3   7.4192 26348.3
 18 10 2016  23 04  -15.5024 26128.3   3402.5   7.4194 26348.9
 18 10 2016  23 05  -15.5017 26128.3   3403.1   7.4207 26349.0
 18 10 2016  23 06  -15.5016 26128.1   3404.0   7.4227 26348.9
 18 10 2016  23 07  -15.5018 26128.1   3402.1   7.4187 26348.7
 18 10 2016  23 08  -15.5015 26128.5   3402.5   7.4193 26349.1
 18 10 2016  23 09  -15.5013 26128.8   3402.8   7.4199 26349.4
 18 10 2016  23 10  -15.5019 26128.7   3402.6   7.4196 26349.3
 18 10 2016  23 11  -15.5037 26128.3   3402.4   7.4192 26348.9
 18 10 2016  23 12  -15.5041 26128.6   3401.6   7.4174 26349.0
 18 10 2016  23 13  -15.5042 26128.7   3403.4   7.4214 26349.4
 18 10 2016  23 14  -15.5024 26129.6   3404.7   7.4238 26350.5
 18 10 2016  23 15  -15.5029 26130.5   3402.9   7.4197 26351.2
 18 10 2016  23 16  -15.5024 26131.2   3403.2   7.4202 26351.9
 18 10 2016  23 17  -15.5020 26132.3   3404.1   7.4218 26353.0
 18 10 2016  23 18  -15.5006 26133.3   3406.1   7.4259 26354.3
 18 10 2016  23 19  -15.5012 26134.0   3405.5   7.4243 26354.9
 18 10 2016  23 20  -15.4999 26135.2   3406.0   7.4250 26356.2
 18 10 2016  23 21  -15.4999 26135.9   3406.5   7.4259 26356.9
 18 10 2016  23 22  -15.4990 26137.1   3405.4   7.4233 26358.0
 18 10 2016  23 23  -15.4997 26137.2   3405.4   7.4231 26358.1
 18 10 2016  23 24  -15.4997 26137.7   3404.5   7.4211 26358.5
 18 10 2016  23 25  -15.4980 26138.2   3405.2   7.4225 26359.1
 18 10 2016  23 26  -15.4985 26138.3   3404.7   7.4214 26359.1
 18 10 2016  23 27  -15.4985 26138.4   3404.4   7.4208 26359.2
 18 10 2016  23 28  -15.4978 26138.3   3405.5   7.4232 26359.2
 18 10 2016  23 29  -15.4994 26137.8   3404.7   7.4216 26358.6
 18 10 2016  23 30  -15.4999 26137.3   3405.8   7.4240 26358.2
 18 10 2016  23 31  -15.5013 26137.3   3404.1   7.4203 26358.1
 18 10 2016  23 32  -15.5011 26137.3   3405.4   7.4231 26358.3
 18 10 2016  23 33  -15.5021 26137.9   3403.1   7.4181 26358.5
 18 10 2016  23 34  -15.5011 26137.6   3404.6   7.4215 26358.4
 18 10 2016  23 35  -15.5016 26137.5   3402.7   7.4174 26358.0
 18 10 2016  23 36  -15.5028 26136.7   3403.4   7.4191 26357.4
 18 10 2016  23 37  -15.5012 26136.9   3403.6   7.4194 26357.6
 18 10 2016  23 38  -15.5025 26136.2   3404.4   7.4214 26357.0
 18 10 2016  23 39  -15.5026 26135.9   3402.7   7.4178 26356.5
 18 10 2016  23 40  -15.5033 26135.2   3403.7   7.4202 26355.9
 18 10 2016  23 41  -15.5040 26135.0   3401.9   7.4164 26355.5
 18 10 2016  23 42  -15.5047 26134.1   3403.0   7.4188 26354.7
 18 10 2016  23 43  -15.5038 26134.2   3402.7   7.4181 26354.8
 18 10 2016  23 44  -15.5036 26133.6   3404.5   7.4224 26354.4
 18 10 2016  23 45  -15.5048 26133.7   3403.2   7.4195 26354.3
 18 10 2016  23 46  -15.5048 26133.9   3402.4   7.4176 26354.4
 18 10 2016  23 47  -15.5030 26134.4   3403.1   7.4190 26355.0
 18 10 2016  23 48  -15.5031 26134.9   3403.8   7.4205 26355.6
 18 10 2016  23 49  -15.5035 26135.0   3403.1   7.4189 26355.6
 18 10 2016  23 50  -15.5026 26135.1   3404.7   7.4222 26355.9
 18 10 2016  23 51  -15.5010 26135.6   3404.1   7.4208 26356.4
 18 10 2016  23 52  -15.5007 26135.8   3403.5   7.4195 26356.4
 18 10 2016  23 53  -15.4997 26136.1   3405.0   7.4226 26356.9
 18 10 2016  23 54  -15.4994 26136.3   3404.5   7.4215 26357.1
 18 10 2016  23 55  -15.4996 26136.8   3404.1   7.4206 26357.6
 18 10 2016  23 56  -15.4984 26137.2   3404.5   7.4214 26358.0
 18 10 2016  23 57  -15.4980 26137.5   3404.7   7.4216 26358.3
 18 10 2016  23 58  -15.4973 26137.9   3405.2   7.4226 26358.8
 18 10 2016  23 59  -15.4974 26138.2   3404.8   7.4216 26359.0
