Manaus - AM                    UNIVAP-03  <284> 1 Min. Reported data

 DD MM YYYY  HH MM   D(Deg)  H(nT)   Z(nT)   I(Deg)   F(nT)

 10 10 2016  00 00  -15.5033 26122.9   3399.4   7.4142 26343.2
 10 10 2016  00 01  -15.5038 26123.2   3400.2   7.4160 26343.6
 10 10 2016  00 02  -15.5028 26123.6   3401.5   7.4187 26344.1
 10 10 2016  00 03  -15.5039 26123.8   3400.3   7.4160 26344.2
 10 10 2016  00 04  -15.5035 26124.4   3400.3   7.4158 26344.8
 10 10 2016  00 05  -15.5040 26124.4   3400.3   7.4158 26344.7
 10 10 2016  00 06  -15.5040 26124.5   3398.8   7.4126 26344.6
 10 10 2016  00 07  -15.5034 26124.4   3400.3   7.4159 26344.7
 10 10 2016  00 08  -15.5027 26124.2   3401.4   7.4183 26344.7
 10 10 2016  00 09  -15.5029 26124.1   3400.2   7.4158 26344.4
 10 10 2016  00 10  -15.5035 26123.9   3399.1   7.4133 26344.1
 10 10 2016  00 11  -15.5025 26123.9   3400.9   7.4172 26344.3
 10 10 2016  00 12  -15.5031 26123.8   3399.0   7.4132 26344.0
 10 10 2016  00 13  -15.5033 26123.6   3399.5   7.4144 26343.9
 10 10 2016  00 14  -15.5044 26123.5   3399.8   7.4149 26343.8
 10 10 2016  00 15  -15.5048 26123.5   3399.7   7.4147 26343.8
 10 10 2016  00 16  -15.5041 26123.8   3400.1   7.4155 26344.1
 10 10 2016  00 17  -15.5033 26124.2   3399.4   7.4138 26344.4
 10 10 2016  00 18  -15.5033 26124.0   3398.9   7.4128 26344.2
 10 10 2016  00 19  -15.5044 26123.6   3398.8   7.4128 26343.8
 10 10 2016  00 20  -15.5046 26123.1   3400.6   7.4168 26343.6
 10 10 2016  00 21  -15.5057 26123.0   3398.9   7.4132 26343.2
 10 10 2016  00 22  -15.5052 26122.9   3399.6   7.4147 26343.2
 10 10 2016  00 23  -15.5057 26122.8   3398.5   7.4123 26342.9
 10 10 2016  00 24  -15.5057 26122.5   3399.6   7.4148 26342.7
 10 10 2016  00 25  -15.5060 26122.2   3398.9   7.4133 26342.4
 10 10 2016  00 26  -15.5054 26122.3   3399.9   7.4155 26342.7
 10 10 2016  00 27  -15.5065 26122.3   3399.3   7.4144 26342.5
 10 10 2016  00 28  -15.5071 26122.2   3399.0   7.4136 26342.4
 10 10 2016  00 29  -15.5055 26122.7   3399.6   7.4149 26343.0
 10 10 2016  00 30  -15.5058 26122.6   3399.9   7.4154 26342.9
 10 10 2016  00 31  -15.5068 26122.2   3400.7   7.4173 26342.6
 10 10 2016  00 32  -15.5076 26122.0   3400.2   7.4162 26342.4
 10 10 2016  00 33  -15.5088 26121.7   3399.1   7.4141 26342.0
 10 10 2016  00 34  -15.5070 26121.9   3400.8   7.4175 26342.3
 10 10 2016  00 35  -15.5068 26122.1   3399.1   7.4139 26342.3
 10 10 2016  00 36  -15.5079 26121.7   3399.0   7.4137 26341.9
 10 10 2016  00 37  -15.5082 26121.2   3400.3   7.4168 26341.6
 10 10 2016  00 38  -15.5097 26121.0   3397.7   7.4112 26341.0
 10 10 2016  00 39  -15.5092 26120.8   3398.4   7.4128 26340.9
 10 10 2016  00 40  -15.5093 26120.7   3397.5   7.4109 26340.8
 10 10 2016  00 41  -15.5107 26120.0   3399.1   7.4144 26340.2
 10 10 2016  00 42  -15.5104 26120.2   3398.1   7.4122 26340.3
 10 10 2016  00 43  -15.5097 26120.0   3400.7   7.4180 26340.4
 10 10 2016  00 44  -15.5105 26120.0   3399.7   7.4157 26340.3
 10 10 2016  00 45  -15.5100 26120.0   3398.7   7.4135 26340.2
 10 10 2016  00 46  -15.5102 26119.7   3401.0   7.4186 26340.1
 10 10 2016  00 47  -15.5100 26119.9   3399.3   7.4149 26340.2
 10 10 2016  00 48  -15.5112 26119.4   3398.2   7.4128 26339.5
 10 10 2016  00 49  -15.5104 26119.3   3399.7   7.4159 26339.6
 10 10 2016  00 50  -15.5104 26119.1   3398.5   7.4134 26339.3
 10 10 2016  00 51  -15.5111 26118.3   3398.9   7.4146 26338.5
 10 10 2016  00 52  -15.5113 26117.9   3397.8   7.4123 26338.0
 10 10 2016  00 53  -15.5106 26117.6   3397.7   7.4122 26337.7
 10 10 2016  00 54  -15.5112 26117.0   3397.7   7.4123 26337.1
 10 10 2016  00 55  -15.5105 26116.8   3399.0   7.4152 26337.0
 10 10 2016  00 56  -15.5109 26116.7   3399.4   7.4161 26337.0
 10 10 2016  00 57  -15.5105 26117.4   3399.6   7.4162 26337.7
 10 10 2016  00 58  -15.5116 26117.0   3398.9   7.4148 26337.3
 10 10 2016  00 59  -15.5114 26116.9   3398.2   7.4134 26337.1
 10 10 2016  01 00  -15.5106 26117.2   3399.2   7.4155 26337.5
 10 10 2016  01 01  -15.5104 26117.4   3398.4   7.4137 26337.6
 10 10 2016  01 02  -15.5108 26117.1   3398.1   7.4131 26337.2
 10 10 2016  01 03  -15.5100 26116.6   3400.6   7.4186 26337.1
 10 10 2016  01 04  -15.5108 26116.7   3398.0   7.4130 26336.8
 10 10 2016  01 05  -15.5109 26116.5   3399.3   7.4158 26336.8
 10 10 2016  01 06  -15.5096 26116.8   3400.3   7.4180 26337.2
 10 10 2016  01 07  -15.5103 26116.5   3400.0   7.4175 26336.9
 10 10 2016  01 08  -15.5106 26116.3   3399.9   7.4172 26336.6
 10 10 2016  01 09  -15.5102 26116.8   3399.9   7.4170 26337.2
 10 10 2016  01 10  -15.5101 26116.6   3399.4   7.4160 26336.9
 10 10 2016  01 11  -15.5102 26116.4   3399.4   7.4161 26336.7
 10 10 2016  01 12  -15.5097 26117.0   3400.3   7.4178 26337.4
 10 10 2016  01 13  -15.5093 26117.3   3400.7   7.4187 26337.7
 10 10 2016  01 14  -15.5091 26117.7   3400.2   7.4176 26338.1
 10 10 2016  01 15  -15.5087 26118.0   3400.5   7.4179 26338.5
 10 10 2016  01 16  -15.5087 26118.4   3400.3   7.4174 26338.8
 10 10 2016  01 17  -15.5078 26118.4   3400.5   7.4179 26338.8
 10 10 2016  01 18  -15.5076 26118.9   3399.7   7.4160 26339.2
 10 10 2016  01 19  -15.5076 26119.3   3400.0   7.4167 26339.7
 10 10 2016  01 20  -15.5065 26120.4   3400.8   7.4181 26340.8
 10 10 2016  01 21  -15.5062 26119.8   3401.7   7.4201 26340.4
 10 10 2016  01 22  -15.5050 26121.0   3401.3   7.4189 26341.5
 10 10 2016  01 23  -15.5076 26120.5   3400.1   7.4165 26340.9
 10 10 2016  01 24  -15.5053 26121.3   3401.8   7.4199 26341.9
 10 10 2016  01 25  -15.5057 26121.4   3401.9   7.4202 26342.0
 10 10 2016  01 26  -15.5057 26121.1   3400.9   7.4180 26341.6
 10 10 2016  01 27  -15.5044 26122.1   3400.4   7.4166 26342.5
 10 10 2016  01 28  -15.5057 26121.3   3400.7   7.4176 26341.8
 10 10 2016  01 29  -15.5059 26121.1   3400.4   7.4170 26341.5
 10 10 2016  01 30  -15.5062 26120.9   3400.1   7.4163 26341.3
 10 10 2016  01 31  -15.5069 26120.0   3400.6   7.4176 26340.5
 10 10 2016  01 32  -15.5065 26120.0   3398.7   7.4136 26340.2
 10 10 2016  01 33  -15.5063 26120.3   3399.3   7.4149 26340.6
 10 10 2016  01 34  -15.5072 26119.6   3398.6   7.4134 26339.7
 10 10 2016  01 35  -15.5068 26119.2   3399.7   7.4159 26339.5
 10 10 2016  01 36  -15.5057 26118.9   3400.6   7.4181 26339.3
 10 10 2016  01 37  -15.5069 26118.6   3399.6   7.4158 26338.9
 10 10 2016  01 38  -15.5071 26118.4   3399.1   7.4148 26338.6
 10 10 2016  01 39  -15.5067 26118.0   3400.0   7.4169 26338.3
 10 10 2016  01 40  -15.5085 26117.4   3400.0   7.4172 26337.7
 10 10 2016  01 41  -15.5077 26117.9   3398.0   7.4127 26338.1
 10 10 2016  01 42  -15.5099 26117.1   3399.0   7.4151 26337.4
 10 10 2016  01 43  -15.5092 26117.4   3398.2   7.4133 26337.6
 10 10 2016  01 44  -15.5081 26117.6   3398.7   7.4144 26337.8
 10 10 2016  01 45  -15.5079 26117.2   3400.0   7.4172 26337.6
 10 10 2016  01 46  -15.5098 26116.3   3399.9   7.4172 26336.7
 10 10 2016  01 47  -15.5097 26116.5   3398.3   7.4137 26336.6
 10 10 2016  01 48  -15.5095 26115.9   3401.0   7.4196 26336.5
 10 10 2016  01 49  -15.5088 26116.2   3400.0   7.4176 26336.6
 10 10 2016  01 50  -15.5088 26116.2   3399.6   7.4167 26336.6
 10 10 2016  01 51  -15.5087 26116.0   3400.2   7.4179 26336.5
 10 10 2016  01 52  -15.5105 26115.3   3400.3   7.4184 26335.7
 10 10 2016  01 53  -15.5106 26115.4   3398.1   7.4135 26335.6
 10 10 2016  01 54  -15.5102 26114.8   3400.2   7.4182 26335.2
 10 10 2016  01 55  -15.5110 26114.3   3399.3   7.4164 26334.6
 10 10 2016  01 56  -15.5107 26114.0   3398.7   7.4154 26334.3
 10 10 2016  01 57  -15.5103 26113.8   3400.3   7.4189 26334.2
 10 10 2016  01 58  -15.5121 26113.2   3399.5   7.4172 26333.6
 10 10 2016  01 59  -15.5110 26113.5   3399.5   7.4172 26333.8
 10 10 2016  02 00  -15.5109 26113.4   3400.2   7.4186 26333.9
 10 10 2016  02 01  -15.5112 26113.6   3399.8   7.4177 26333.9
 10 10 2016  02 02  -15.5112 26113.5   3399.7   7.4176 26333.9
 10 10 2016  02 03  -15.5112 26113.9   3399.9   7.4178 26334.3
 10 10 2016  02 04  -15.5111 26113.9   3400.6   7.4194 26334.4
 10 10 2016  02 05  -15.5111 26114.0   3400.2   7.4185 26334.5
 10 10 2016  02 06  -15.5116 26113.9   3399.4   7.4168 26334.3
 10 10 2016  02 07  -15.5114 26113.8   3400.3   7.4188 26334.2
 10 10 2016  02 08  -15.5111 26113.9   3400.2   7.4185 26334.3
 10 10 2016  02 09  -15.5120 26113.6   3400.2   7.4186 26334.1
 10 10 2016  02 10  -15.5106 26114.1   3400.3   7.4187 26334.5
 10 10 2016  02 11  -15.5120 26113.8   3399.6   7.4173 26334.2
 10 10 2016  02 12  -15.5119 26113.7   3400.9   7.4201 26334.2
 10 10 2016  02 13  -15.5120 26113.7   3400.1   7.4183 26334.1
 10 10 2016  02 14  -15.5123 26113.7   3400.7   7.4198 26334.2
 10 10 2016  02 15  -15.5114 26114.0   3400.6   7.4193 26334.5
 10 10 2016  02 16  -15.5123 26113.9   3400.2   7.4186 26334.3
 10 10 2016  02 17  -15.5122 26113.9   3400.0   7.4182 26334.3
 10 10 2016  02 18  -15.5124 26113.8   3400.6   7.4194 26334.3
 10 10 2016  02 19  -15.5120 26114.0   3400.2   7.4185 26334.4
 10 10 2016  02 20  -15.5121 26114.0   3400.2   7.4185 26334.4
 10 10 2016  02 21  -15.5121 26114.0   3400.3   7.4187 26334.5
 10 10 2016  02 22  -15.5122 26114.0   3400.8   7.4198 26334.5
 10 10 2016  02 23  -15.5126 26114.1   3400.3   7.4188 26334.5
 10 10 2016  02 24  -15.5122 26114.3   3400.4   7.4188 26334.8
 10 10 2016  02 25  -15.5131 26114.4   3399.2   7.4163 26334.7
 10 10 2016  02 26  -15.5115 26114.7   3399.8   7.4174 26335.1
 10 10 2016  02 27  -15.5118 26114.5   3401.0   7.4201 26335.0
 10 10 2016  02 28  -15.5133 26114.2   3399.9   7.4177 26334.6
 10 10 2016  02 29  -15.5114 26114.6   3400.2   7.4184 26335.0
 10 10 2016  02 30  -15.5122 26114.1   3402.1   7.4225 26334.8
 10 10 2016  02 31  -15.5126 26114.5   3401.3   7.4208 26335.1
 10 10 2016  02 32  -15.5127 26115.0   3400.4   7.4187 26335.5
 10 10 2016  02 33  -15.5138 26115.2   3399.8   7.4173 26335.5
 10 10 2016  02 34  -15.5121 26115.9   3400.4   7.4185 26336.3
 10 10 2016  02 35  -15.5128 26116.0   3401.1   7.4199 26336.5
 10 10 2016  02 36  -15.5126 26116.5   3400.9   7.4193 26337.0
 10 10 2016  02 37  -15.5125 26116.9   3400.7   7.4188 26337.3
 10 10 2016  02 38  -15.5122 26117.2   3400.9   7.4191 26337.7
 10 10 2016  02 39  -15.5121 26117.4   3400.8   7.4188 26337.9
 10 10 2016  02 40  -15.5124 26117.3   3400.4   7.4181 26337.8
 10 10 2016  02 41  -15.5124 26117.3   3400.6   7.4184 26337.7
 10 10 2016  02 42  -15.5127 26117.0   3400.4   7.4181 26337.4
 10 10 2016  02 43  -15.5126 26116.9   3400.1   7.4175 26337.3
 10 10 2016  02 44  -15.5117 26116.9   3400.9   7.4191 26337.4
 10 10 2016  02 45  -15.5124 26116.7   3400.4   7.4181 26337.2
 10 10 2016  02 46  -15.5123 26116.9   3399.2   7.4156 26337.1
 10 10 2016  02 47  -15.5129 26116.6   3399.3   7.4157 26336.9
 10 10 2016  02 48  -15.5125 26116.6   3398.5   7.4142 26336.8
 10 10 2016  02 49  -15.5127 26116.0   3400.9   7.4195 26336.5
 10 10 2016  02 50  -15.5117 26116.1   3400.1   7.4178 26336.5
 10 10 2016  02 51  -15.5114 26116.1   3400.9   7.4195 26336.6
 10 10 2016  02 52  -15.5120 26115.8   3401.4   7.4206 26336.4
 10 10 2016  02 53  -15.5134 26116.2   3399.0   7.4153 26336.5
 10 10 2016  02 54  -15.5133 26116.3   3399.5   7.4165 26336.7
 10 10 2016  02 55  -15.5123 26116.7   3400.2   7.4178 26337.1
 10 10 2016  02 56  -15.5128 26116.9   3399.9   7.4170 26337.3
 10 10 2016  02 57  -15.5108 26117.7   3401.0   7.4192 26338.2
 10 10 2016  02 58  -15.5108 26118.3   3399.3   7.4154 26338.6
 10 10 2016  02 59  -15.5103 26118.4   3401.6   7.4203 26338.9
 10 10 2016  03 00  -15.5109 26118.6   3400.8   7.4186 26339.1
 10 10 2016  03 01  -15.5106 26118.7   3401.4   7.4198 26339.2
 10 10 2016  03 02  -15.5110 26118.4   3401.2   7.4195 26338.9
 10 10 2016  03 03  -15.5115 26118.2   3398.6   7.4140 26338.4
 10 10 2016  03 04  -15.5106 26117.8   3400.6   7.4183 26338.2
 10 10 2016  03 05  -15.5099 26117.9   3400.2   7.4175 26338.3
 10 10 2016  03 06  -15.5116 26117.7   3398.5   7.4138 26337.9
 10 10 2016  03 07  -15.5114 26117.4   3400.0   7.4171 26337.8
 10 10 2016  03 08  -15.5108 26117.4   3400.2   7.4175 26337.8
 10 10 2016  03 09  -15.5118 26117.0   3400.5   7.4183 26337.4
 10 10 2016  03 10  -15.5104 26117.5   3399.1   7.4152 26337.7
 10 10 2016  03 11  -15.5115 26116.9   3400.0   7.4173 26337.3
 10 10 2016  03 12  -15.5124 26116.8   3399.2   7.4155 26337.0
 10 10 2016  03 13  -15.5118 26117.1   3398.5   7.4140 26337.3
 10 10 2016  03 14  -15.5102 26117.1   3400.8   7.4189 26337.5
 10 10 2016  03 15  -15.5105 26117.0   3399.4   7.4159 26337.3
 10 10 2016  03 16  -15.5127 26116.5   3398.5   7.4141 26336.7
 10 10 2016  03 17  -15.5126 26116.1   3399.8   7.4170 26336.5
 10 10 2016  03 18  -15.5129 26115.9   3399.0   7.4154 26336.1
 10 10 2016  03 19  -15.5121 26115.8   3400.1   7.4177 26336.2
 10 10 2016  03 20  -15.5127 26115.5   3399.0   7.4154 26335.8
 10 10 2016  03 21  -15.5118 26115.3   3400.9   7.4196 26335.8
 10 10 2016  03 22  -15.5114 26115.4   3401.0   7.4199 26335.9
 10 10 2016  03 23  -15.5121 26115.3   3400.5   7.4188 26335.7
 10 10 2016  03 24  -15.5132 26115.3   3400.1   7.4180 26335.7
 10 10 2016  03 25  -15.5141 26115.3   3399.3   7.4162 26335.6
 10 10 2016  03 26  -15.5149 26115.1   3399.6   7.4170 26335.4
 10 10 2016  03 27  -15.5151 26114.9   3400.3   7.4184 26335.3
 10 10 2016  03 28  -15.5142 26115.0   3401.3   7.4205 26335.6
 10 10 2016  03 29  -15.5145 26115.0   3401.6   7.4213 26335.6
 10 10 2016  03 30  -15.5136 26115.3   3402.1   7.4223 26335.9
 10 10 2016  03 31  -15.5132 26115.9   3399.6   7.4167 26336.3
 10 10 2016  03 32  -15.5150 26115.4   3399.3   7.4161 26335.7
 10 10 2016  03 33  -15.5149 26115.2   3399.1   7.4158 26335.5
 10 10 2016  03 34  -15.5144 26114.6   3401.0   7.4201 26335.1
 10 10 2016  03 35  -15.5163 26113.8   3397.8   7.4134 26333.9
 10 10 2016  03 36  -15.5160 26113.3   3399.7   7.4176 26333.7
 10 10 2016  03 37  -15.5172 26112.9   3399.5   7.4172 26333.3
 10 10 2016  03 38  -15.5171 26112.7   3400.1   7.4186 26333.1
 10 10 2016  03 39  -15.5176 26112.5   3398.6   7.4155 26332.8
 10 10 2016  03 40  -15.5179 26112.1   3400.1   7.4189 26332.6
 10 10 2016  03 41  -15.5172 26112.4   3399.0   7.4164 26332.7
 10 10 2016  03 42  -15.5177 26112.1   3399.1   7.4167 26332.4
 10 10 2016  03 43  -15.5179 26111.6   3399.9   7.4185 26332.0
 10 10 2016  03 44  -15.5177 26111.5   3399.7   7.4181 26331.9
 10 10 2016  03 45  -15.5179 26111.1   3399.6   7.4180 26331.5
 10 10 2016  03 46  -15.5175 26111.0   3399.6   7.4180 26331.4
 10 10 2016  03 47  -15.5170 26111.1   3399.6   7.4180 26331.5
 10 10 2016  03 48  -15.5175 26110.7   3400.1   7.4192 26331.2
 10 10 2016  03 49  -15.5175 26110.3   3401.7   7.4228 26331.0
 10 10 2016  03 50  -15.5176 26110.4   3400.2   7.4196 26330.8
 10 10 2016  03 51  -15.5181 26110.3   3399.6   7.4183 26330.7
 10 10 2016  03 52  -15.5191 26109.9   3398.6   7.4161 26330.2
 10 10 2016  03 53  -15.5183 26109.9   3399.1   7.4174 26330.2
 10 10 2016  03 54  -15.5178 26109.4   3401.3   7.4222 26330.0
 10 10 2016  03 55  -15.5183 26109.1   3400.2   7.4199 26329.6
 10 10 2016  03 56  -15.5171 26108.9   3401.1   7.4219 26329.4
 10 10 2016  03 57  -15.5188 26108.3   3399.8   7.4192 26328.7
 10 10 2016  03 58  -15.5185 26108.0   3400.3   7.4205 26328.5
 10 10 2016  03 59  -15.5193 26107.7   3398.5   7.4165 26328.0
 10 10 2016  04 00  -15.5174 26107.6   3399.9   7.4197 26328.1
 10 10 2016  04 01  -15.5176 26107.2   3400.0   7.4201 26327.6
 10 10 2016  04 02  -15.5172 26106.8   3401.0   7.4222 26327.4
 10 10 2016  04 03  -15.5184 26106.2   3401.7   7.4240 26326.9
 10 10 2016  04 04  -15.5181 26106.1   3402.0   7.4247 26326.9
 10 10 2016  04 05  -15.5177 26106.1   3402.1   7.4249 26326.8
 10 10 2016  04 06  -15.5191 26106.0   3400.6   7.4216 26326.5
 10 10 2016  04 07  -15.5178 26106.3   3400.3   7.4209 26326.8
 10 10 2016  04 08  -15.5187 26106.0   3400.2   7.4207 26326.5
 10 10 2016  04 09  -15.5193 26105.8   3399.7   7.4198 26326.3
 10 10 2016  04 10  -15.5183 26105.8   3400.6   7.4217 26326.4
 10 10 2016  04 11  -15.5198 26105.3   3400.8   7.4222 26325.8
 10 10 2016  04 12  -15.5181 26105.6   3401.2   7.4230 26326.2
 10 10 2016  04 13  -15.5189 26105.2   3400.7   7.4221 26325.8
 10 10 2016  04 14  -15.5191 26105.0   3401.0   7.4228 26325.6
 10 10 2016  04 15  -15.5186 26104.9   3401.5   7.4238 26325.6
 10 10 2016  04 16  -15.5200 26104.3   3401.3   7.4235 26325.0
 10 10 2016  04 17  -15.5214 26104.0   3399.7   7.4202 26324.4
 10 10 2016  04 18  -15.5206 26103.8   3400.7   7.4224 26324.4
 10 10 2016  04 19  -15.5218 26103.7   3399.8   7.4205 26324.2
 10 10 2016  04 20  -15.5221 26103.7   3399.5   7.4198 26324.1
 10 10 2016  04 21  -15.5214 26103.5   3401.7   7.4247 26324.2
 10 10 2016  04 22  -15.5226 26103.1   3400.9   7.4230 26323.8
 10 10 2016  04 23  -15.5232 26102.8   3400.5   7.4223 26323.4
 10 10 2016  04 24  -15.5220 26103.1   3400.5   7.4222 26323.7
 10 10 2016  04 25  -15.5225 26102.7   3401.7   7.4249 26323.4
 10 10 2016  04 26  -15.5236 26102.1   3401.6   7.4248 26322.8
 10 10 2016  04 27  -15.5230 26102.0   3401.7   7.4252 26322.7
 10 10 2016  04 28  -15.5228 26101.9   3401.8   7.4255 26322.6
 10 10 2016  04 29  -15.5242 26101.1   3402.3   7.4266 26321.9
 10 10 2016  04 30  -15.5241 26101.2   3401.4   7.4246 26321.9
 10 10 2016  04 31  -15.5240 26101.2   3401.6   7.4251 26321.9
 10 10 2016  04 32  -15.5254 26101.3   3400.5   7.4228 26321.9
 10 10 2016  04 33  -15.5248 26101.6   3401.1   7.4240 26322.3
 10 10 2016  04 34  -15.5248 26101.8   3401.6   7.4249 26322.5
 10 10 2016  04 35  -15.5253 26101.9   3401.8   7.4255 26322.6
 10 10 2016  04 36  -15.5254 26102.2   3401.8   7.4252 26323.0
 10 10 2016  04 37  -15.5247 26102.7   3402.3   7.4262 26323.5
 10 10 2016  04 38  -15.5245 26103.3   3402.2   7.4257 26324.1
 10 10 2016  04 39  -15.5245 26103.8   3402.4   7.4261 26324.6
 10 10 2016  04 40  -15.5244 26104.5   3402.7   7.4266 26325.3
 10 10 2016  04 41  -15.5243 26105.4   3402.8   7.4265 26326.2
 10 10 2016  04 42  -15.5243 26106.2   3403.1   7.4271 26327.1
 10 10 2016  04 43  -15.5244 26106.8   3403.4   7.4274 26327.7
 10 10 2016  04 44  -15.5253 26107.5   3401.6   7.4233 26328.2
 10 10 2016  04 45  -15.5240 26107.9   3403.3   7.4269 26328.8
 10 10 2016  04 46  -15.5250 26107.7   3402.9   7.4261 26328.6
 10 10 2016  04 47  -15.5250 26107.7   3403.0   7.4263 26328.6
 10 10 2016  04 48  -15.5236 26108.1   3402.1   7.4244 26328.8
 10 10 2016  04 49  -15.5232 26108.0   3401.4   7.4229 26328.7
 10 10 2016  04 50  -15.5223 26107.7   3402.7   7.4257 26328.5
 10 10 2016  04 51  -15.5221 26107.5   3400.9   7.4220 26328.1
 10 10 2016  04 52  -15.5220 26106.9   3401.3   7.4229 26327.5
 10 10 2016  04 53  -15.5216 26106.8   3401.3   7.4230 26327.5
 10 10 2016  04 54  -15.5215 26106.6   3401.8   7.4241 26327.3
 10 10 2016  04 55  -15.5209 26106.8   3400.9   7.4220 26327.4
 10 10 2016  04 56  -15.5208 26106.8   3401.2   7.4228 26327.5
 10 10 2016  04 57  -15.5202 26107.1   3401.9   7.4241 26327.8
 10 10 2016  04 58  -15.5206 26107.3   3401.9   7.4241 26328.0
 10 10 2016  04 59  -15.5190 26107.7   3402.1   7.4245 26328.4
 10 10 2016  05 00  -15.5184 26107.7   3403.6   7.4277 26328.6
 10 10 2016  05 01  -15.5196 26107.6   3402.4   7.4251 26328.4
 10 10 2016  05 02  -15.5190 26108.0   3403.5   7.4273 26328.9
 10 10 2016  05 03  -15.5183 26109.0   3401.7   7.4231 26329.6
 10 10 2016  05 04  -15.5194 26109.3   3401.2   7.4220 26329.9
 10 10 2016  05 05  -15.5191 26109.5   3402.0   7.4236 26330.2
 10 10 2016  05 06  -15.5183 26109.4   3402.9   7.4256 26330.3
 10 10 2016  05 07  -15.5187 26109.2   3402.2   7.4241 26329.9
 10 10 2016  05 08  -15.5208 26108.4   3401.8   7.4236 26329.1
 10 10 2016  05 09  -15.5203 26108.5   3401.1   7.4220 26329.1
 10 10 2016  05 10  -15.5203 26108.2   3402.8   7.4257 26329.0
 10 10 2016  05 11  -15.5214 26108.5   3400.0   7.4197 26328.9
 10 10 2016  05 12  -15.5206 26108.9   3400.3   7.4202 26329.3
 10 10 2016  05 13  -15.5205 26108.7   3402.8   7.4257 26329.5
 10 10 2016  05 14  -15.5206 26109.0   3401.9   7.4235 26329.7
 10 10 2016  05 15  -15.5209 26109.1   3402.4   7.4246 26329.8
 10 10 2016  05 16  -15.5205 26109.5   3401.5   7.4225 26330.2
 10 10 2016  05 17  -15.5211 26109.6   3401.9   7.4233 26330.3
 10 10 2016  05 18  -15.5219 26109.7   3401.5   7.4225 26330.4
 10 10 2016  05 19  -15.5223 26109.6   3403.6   7.4272 26330.5
 10 10 2016  05 20  -15.5229 26109.9   3401.4   7.4223 26330.6
 10 10 2016  05 21  -15.5221 26110.2   3402.2   7.4239 26330.9
 10 10 2016  05 22  -15.5227 26110.1   3402.9   7.4255 26330.9
 10 10 2016  05 23  -15.5226 26110.4   3403.1   7.4258 26331.2
 10 10 2016  05 24  -15.5230 26110.2   3403.2   7.4260 26331.1
 10 10 2016  05 25  -15.5234 26110.3   3402.1   7.4237 26331.0
 10 10 2016  05 26  -15.5233 26110.1   3403.5   7.4268 26331.0
 10 10 2016  05 27  -15.5237 26110.0   3403.2   7.4260 26330.8
 10 10 2016  05 28  -15.5231 26109.9   3403.3   7.4263 26330.7
 10 10 2016  05 29  -15.5227 26109.8   3403.3   7.4263 26330.7
 10 10 2016  05 30  -15.5224 26109.9   3402.2   7.4239 26330.7
 10 10 2016  05 31  -15.5234 26109.6   3401.8   7.4231 26330.3
 10 10 2016  05 32  -15.5239 26109.3   3401.7   7.4231 26330.0
 10 10 2016  05 33  -15.5224 26109.8   3400.6   7.4206 26330.4
 10 10 2016  05 34  -15.5229 26109.5   3402.0   7.4238 26330.2
 10 10 2016  05 35  -15.5229 26109.5   3402.5   7.4248 26330.3
 10 10 2016  05 36  -15.5231 26109.7   3401.1   7.4217 26330.3
 10 10 2016  05 37  -15.5236 26109.5   3402.0   7.4237 26330.2
 10 10 2016  05 38  -15.5239 26109.6   3401.8   7.4232 26330.3
 10 10 2016  05 39  -15.5242 26109.5   3401.8   7.4232 26330.2
 10 10 2016  05 40  -15.5239 26109.5   3402.2   7.4241 26330.2
 10 10 2016  05 41  -15.5245 26109.3   3401.5   7.4226 26329.9
 10 10 2016  05 42  -15.5242 26109.1   3401.4   7.4225 26329.7
 10 10 2016  05 43  -15.5233 26109.0   3402.8   7.4254 26329.8
 10 10 2016  05 44  -15.5246 26108.7   3401.9   7.4236 26329.4
 10 10 2016  05 45  -15.5248 26108.7   3400.9   7.4215 26329.3
 10 10 2016  05 46  -15.5244 26108.5   3402.2   7.4245 26329.2
 10 10 2016  05 47  -15.5239 26108.5   3402.0   7.4240 26329.2
 10 10 2016  05 48  -15.5249 26108.1   3402.4   7.4249 26328.8
 10 10 2016  05 49  -15.5242 26108.2   3402.0   7.4241 26328.9
 10 10 2016  05 50  -15.5236 26108.3   3401.8   7.4236 26329.0
 10 10 2016  05 51  -15.5236 26108.5   3401.7   7.4232 26329.1
 10 10 2016  05 52  -15.5237 26108.8   3400.8   7.4213 26329.3
 10 10 2016  05 53  -15.5236 26108.9   3401.9   7.4237 26329.6
 10 10 2016  05 54  -15.5236 26109.4   3400.9   7.4212 26329.9
 10 10 2016  05 55  -15.5228 26109.5   3402.3   7.4244 26330.3
 10 10 2016  05 56  -15.5240 26109.4   3401.6   7.4228 26330.0
 10 10 2016  05 57  -15.5238 26109.4   3401.7   7.4231 26330.1
 10 10 2016  05 58  -15.5260 26109.0   3402.5   7.4250 26329.8
 10 10 2016  05 59  -15.5269 26109.4   3400.7   7.4209 26329.9
 10 10 2016  06 00  -15.5264 26109.4   3402.9   7.4257 26330.3
 10 10 2016  06 01  -15.5258 26109.9   3403.0   7.4256 26330.7
 10 10 2016  06 02  -15.5269 26110.2   3402.6   7.4248 26330.9
 10 10 2016  06 03  -15.5275 26110.3   3401.7   7.4228 26331.0
 10 10 2016  06 04  -15.5270 26111.3   3401.3   7.4216 26331.9
 10 10 2016  06 05  -15.5276 26111.2   3402.4   7.4241 26331.9
 10 10 2016  06 06  -15.5260 26111.8   3402.3   7.4237 26332.6
 10 10 2016  06 07  -15.5267 26112.0   3401.5   7.4219 26332.6
 10 10 2016  06 08  -15.5268 26112.5   3403.3   7.4257 26333.3
 10 10 2016  06 09  -15.5272 26113.0   3402.4   7.4236 26333.8
 10 10 2016  06 10  -15.5272 26113.8   3403.6   7.4260 26334.7
 10 10 2016  06 11  -15.5279 26114.2   3402.0   7.4222 26334.9
 10 10 2016  06 12  -15.5273 26114.5   3401.9   7.4221 26335.2
 10 10 2016  06 13  -15.5256 26115.0   3404.4   7.4273 26335.9
 10 10 2016  06 14  -15.5259 26116.0   3404.2   7.4265 26337.0
 10 10 2016  06 15  -15.5266 26116.3   3405.1   7.4285 26337.3
 10 10 2016  06 16  -15.5272 26116.8   3403.3   7.4244 26337.6
 10 10 2016  06 17  -15.5263 26117.5   3404.1   7.4259 26338.4
 10 10 2016  06 18  -15.5274 26117.9   3404.6   7.4269 26338.9
 10 10 2016  06 19  -15.5284 26117.9   3403.5   7.4246 26338.7
 10 10 2016  06 20  -15.5280 26119.1   3403.2   7.4235 26339.9
 10 10 2016  06 21  -15.5278 26120.1   3404.3   7.4256 26341.0
 10 10 2016  06 22  -15.5291 26120.7   3403.7   7.4242 26341.5
 10 10 2016  06 23  -15.5290 26122.0   3404.1   7.4248 26342.9
 10 10 2016  06 24  -15.5299 26122.6   3403.4   7.4230 26343.4
 10 10 2016  06 25  -15.5291 26123.5   3404.3   7.4248 26344.4
 10 10 2016  06 26  -15.5314 26123.8   3404.2   7.4243 26344.7
 10 10 2016  06 27  -15.5318 26124.4   3402.7   7.4209 26345.1
 10 10 2016  06 28  -15.5308 26124.6   3404.7   7.4251 26345.5
 10 10 2016  06 29  -15.5325 26124.7   3404.0   7.4237 26345.6
 10 10 2016  06 30  -15.5309 26125.1   3404.6   7.4250 26346.1
 10 10 2016  06 31  -15.5325 26124.9   3403.2   7.4219 26345.7
 10 10 2016  06 32  -15.5315 26125.5   3402.3   7.4197 26346.1
 10 10 2016  06 33  -15.5306 26125.5   3402.8   7.4209 26346.2
 10 10 2016  06 34  -15.5307 26125.0   3404.5   7.4246 26345.9
 10 10 2016  06 35  -15.5307 26124.9   3404.0   7.4237 26345.8
 10 10 2016  06 36  -15.5291 26125.3   3404.5   7.4247 26346.2
 10 10 2016  06 37  -15.5281 26125.7   3404.2   7.4238 26346.5
 10 10 2016  06 38  -15.5280 26125.7   3404.5   7.4244 26346.6
 10 10 2016  06 39  -15.5289 26125.1   3403.5   7.4225 26345.9
 10 10 2016  06 40  -15.5283 26125.4   3402.1   7.4193 26346.0
 10 10 2016  06 41  -15.5253 26126.1   3402.7   7.4206 26346.7
 10 10 2016  06 42  -15.5258 26125.7   3403.5   7.4223 26346.5
 10 10 2016  06 43  -15.5262 26125.6   3403.4   7.4222 26346.4
 10 10 2016  06 44  -15.5262 26125.7   3402.4   7.4200 26346.3
 10 10 2016  06 45  -15.5241 26125.9   3403.0   7.4211 26346.6
 10 10 2016  06 46  -15.5230 26126.3   3403.2   7.4215 26347.0
 10 10 2016  06 47  -15.5245 26125.7   3403.1   7.4216 26346.4
 10 10 2016  06 48  -15.5233 26125.8   3403.1   7.4214 26346.5
 10 10 2016  06 49  -15.5238 26125.8   3400.8   7.4164 26346.2
 10 10 2016  06 50  -15.5238 26125.4   3402.4   7.4201 26346.0
 10 10 2016  06 51  -15.5232 26125.2   3402.6   7.4204 26345.9
 10 10 2016  06 52  -15.5227 26124.9   3402.3   7.4200 26345.6
 10 10 2016  06 53  -15.5228 26124.5   3401.9   7.4192 26345.1
 10 10 2016  06 54  -15.5224 26124.3   3401.0   7.4173 26344.8
 10 10 2016  06 55  -15.5217 26124.1   3402.1   7.4198 26344.7
 10 10 2016  06 56  -15.5217 26124.0   3401.5   7.4186 26344.6
 10 10 2016  06 57  -15.5225 26123.9   3401.1   7.4176 26344.3
 10 10 2016  06 58  -15.5223 26123.9   3400.7   7.4169 26344.3
 10 10 2016  06 59  -15.5212 26124.0   3401.6   7.4188 26344.5
 10 10 2016  07 00  -15.5210 26123.9   3402.0   7.4196 26344.5
 10 10 2016  07 01  -15.5208 26124.1   3401.5   7.4186 26344.6
 10 10 2016  07 02  -15.5204 26124.3   3402.5   7.4205 26344.9
 10 10 2016  07 03  -15.5208 26124.6   3401.4   7.4181 26345.1
 10 10 2016  07 04  -15.5210 26124.6   3402.2   7.4199 26345.2
 10 10 2016  07 05  -15.5221 26124.7   3401.6   7.4186 26345.2
 10 10 2016  07 06  -15.5218 26125.0   3401.8   7.4190 26345.5
 10 10 2016  07 07  -15.5216 26125.3   3401.8   7.4187 26345.8
 10 10 2016  07 08  -15.5220 26125.3   3401.4   7.4179 26345.8
 10 10 2016  07 09  -15.5232 26125.0   3401.6   7.4185 26345.5
 10 10 2016  07 10  -15.5223 26125.3   3400.7   7.4165 26345.7
 10 10 2016  07 11  -15.5220 26125.2   3401.6   7.4184 26345.7
 10 10 2016  07 12  -15.5232 26124.7   3400.5   7.4161 26345.1
 10 10 2016  07 13  -15.5213 26124.6   3401.2   7.4178 26345.1
 10 10 2016  07 14  -15.5232 26124.2   3399.1   7.4134 26344.4
 10 10 2016  07 15  -15.5231 26124.0   3400.6   7.4165 26344.4
 10 10 2016  07 16  -15.5231 26123.9   3400.3   7.4159 26344.3
 10 10 2016  07 17  -15.5234 26123.6   3401.1   7.4177 26344.1
 10 10 2016  07 18  -15.5229 26123.9   3400.1   7.4156 26344.3
 10 10 2016  07 19  -15.5230 26123.8   3401.4   7.4184 26344.3
 10 10 2016  07 20  -15.5232 26124.0   3400.5   7.4164 26344.4
 10 10 2016  07 21  -15.5231 26124.1   3400.8   7.4171 26344.5
 10 10 2016  07 22  -15.5234 26124.1   3400.9   7.4172 26344.5
 10 10 2016  07 23  -15.5229 26124.2   3401.6   7.4187 26344.7
 10 10 2016  07 24  -15.5232 26124.3   3401.4   7.4181 26344.8
 10 10 2016  07 25  -15.5226 26124.4   3401.3   7.4179 26344.9
 10 10 2016  07 26  -15.5225 26124.5   3401.0   7.4173 26344.9
 10 10 2016  07 27  -15.5227 26124.3   3401.6   7.4186 26344.8
 10 10 2016  07 28  -15.5226 26124.3   3401.1   7.4176 26344.7
 10 10 2016  07 29  -15.5226 26124.0   3401.2   7.4179 26344.5
 10 10 2016  07 30  -15.5221 26123.9   3401.0   7.4174 26344.3
 10 10 2016  07 31  -15.5217 26123.7   3400.4   7.4163 26344.1
 10 10 2016  07 32  -15.5217 26123.4   3400.8   7.4173 26343.8
 10 10 2016  07 33  -15.5219 26123.3   3400.4   7.4162 26343.7
 10 10 2016  07 34  -15.5221 26123.2   3400.1   7.4157 26343.5
 10 10 2016  07 35  -15.5216 26123.1   3400.9   7.4174 26343.6
 10 10 2016  07 36  -15.5220 26123.0   3400.9   7.4176 26343.4
 10 10 2016  07 37  -15.5218 26122.9   3400.4   7.4165 26343.3
 10 10 2016  07 38  -15.5216 26123.3   3400.5   7.4165 26343.7
 10 10 2016  07 39  -15.5217 26123.3   3400.6   7.4168 26343.7
 10 10 2016  07 40  -15.5215 26123.6   3400.9   7.4174 26344.1
 10 10 2016  07 41  -15.5215 26123.6   3400.5   7.4165 26344.0
 10 10 2016  07 42  -15.5215 26123.6   3401.6   7.4188 26344.1
 10 10 2016  07 43  -15.5219 26124.1   3400.3   7.4160 26344.4
 10 10 2016  07 44  -15.5232 26123.7   3400.4   7.4163 26344.0
 10 10 2016  07 45  -15.5232 26123.6   3400.6   7.4167 26344.0
 10 10 2016  07 46  -15.5223 26124.4   3401.1   7.4175 26344.9
 10 10 2016  07 47  -15.5229 26123.8   3400.8   7.4170 26344.3
 10 10 2016  07 48  -15.5233 26123.7   3400.3   7.4161 26344.0
 10 10 2016  07 49  -15.5234 26123.5   3400.3   7.4161 26343.8
 10 10 2016  07 50  -15.5235 26123.1   3400.5   7.4166 26343.5
 10 10 2016  07 51  -15.5235 26122.7   3400.2   7.4161 26343.1
 10 10 2016  07 52  -15.5233 26122.8   3400.4   7.4166 26343.2
 10 10 2016  07 53  -15.5233 26123.0   3400.4   7.4164 26343.4
 10 10 2016  07 54  -15.5231 26122.9   3400.7   7.4172 26343.4
 10 10 2016  07 55  -15.5226 26123.0   3400.8   7.4172 26343.4
 10 10 2016  07 56  -15.5218 26123.3   3401.0   7.4176 26343.8
 10 10 2016  07 57  -15.5211 26123.9   3401.0   7.4174 26344.3
 10 10 2016  07 58  -15.5206 26124.5   3401.3   7.4180 26345.0
 10 10 2016  07 59  -15.5209 26125.2   3401.7   7.4187 26345.7
 10 10 2016  08 00  -15.5209 26125.8   3401.6   7.4181 26346.3
 10 10 2016  08 01  -15.5214 26125.9   3401.4   7.4177 26346.4
 10 10 2016  08 02  -15.5217 26126.3   3401.5   7.4179 26346.8
 10 10 2016  08 03  -15.5219 26127.0   3401.6   7.4178 26347.5
 10 10 2016  08 04  -15.5218 26127.3   3401.7   7.4180 26347.9
 10 10 2016  08 05  -15.5215 26127.7   3401.5   7.4175 26348.2
 10 10 2016  08 06  -15.5212 26128.3   3401.6   7.4175 26348.8
 10 10 2016  08 07  -15.5211 26128.5   3401.6   7.4174 26349.0
 10 10 2016  08 08  -15.5206 26128.8   3401.8   7.4179 26349.3
 10 10 2016  08 09  -15.5209 26128.8   3401.0   7.4160 26349.2
 10 10 2016  08 10  -15.5206 26129.0   3400.8   7.4156 26349.4
 10 10 2016  08 11  -15.5193 26129.3   3401.5   7.4170 26349.8
 10 10 2016  08 12  -15.5193 26129.5   3400.7   7.4152 26349.9
 10 10 2016  08 13  -15.5187 26129.7   3401.4   7.4168 26350.2
 10 10 2016  08 14  -15.5182 26130.0   3401.2   7.4162 26350.4
 10 10 2016  08 15  -15.5181 26130.2   3401.1   7.4158 26350.6
 10 10 2016  08 16  -15.5180 26130.3   3400.9   7.4155 26350.7
 10 10 2016  08 17  -15.5181 26130.3   3401.2   7.4160 26350.7
 10 10 2016  08 18  -15.5174 26130.6   3400.9   7.4154 26351.0
 10 10 2016  08 19  -15.5170 26130.6   3400.9   7.4154 26351.0
 10 10 2016  08 20  -15.5173 26130.6   3400.5   7.4145 26350.9
 10 10 2016  08 21  -15.5167 26130.7   3400.5   7.4144 26351.0
 10 10 2016  08 22  -15.5161 26130.8   3400.8   7.4150 26351.2
 10 10 2016  08 23  -15.5161 26130.8   3400.6   7.4148 26351.2
 10 10 2016  08 24  -15.5157 26131.0   3400.4   7.4142 26351.3
 10 10 2016  08 25  -15.5156 26131.0   3400.8   7.4150 26351.3
 10 10 2016  08 26  -15.5156 26131.0   3400.7   7.4147 26351.4
 10 10 2016  08 27  -15.5155 26131.3   3400.6   7.4144 26351.6
 10 10 2016  08 28  -15.5151 26131.4   3400.3   7.4138 26351.7
 10 10 2016  08 29  -15.5153 26131.2   3400.3   7.4140 26351.5
 10 10 2016  08 30  -15.5151 26131.2   3400.7   7.4148 26351.6
 10 10 2016  08 31  -15.5150 26131.4   3400.3   7.4139 26351.7
 10 10 2016  08 32  -15.5150 26131.1   3400.8   7.4151 26351.5
 10 10 2016  08 33  -15.5143 26131.4   3400.5   7.4143 26351.7
 10 10 2016  08 34  -15.5143 26131.2   3400.8   7.4149 26351.6
 10 10 2016  08 35  -15.5140 26131.3   3400.4   7.4141 26351.7
 10 10 2016  08 36  -15.5135 26131.3   3400.4   7.4140 26351.6
 10 10 2016  08 37  -15.5135 26131.2   3400.3   7.4140 26351.5
 10 10 2016  08 38  -15.5132 26131.0   3400.2   7.4137 26351.3
 10 10 2016  08 39  -15.5131 26131.0   3400.2   7.4138 26351.2
 10 10 2016  08 40  -15.5129 26130.8   3400.1   7.4136 26351.1
 10 10 2016  08 41  -15.5129 26130.5   3400.2   7.4138 26350.8
 10 10 2016  08 42  -15.5125 26130.4   3399.9   7.4134 26350.7
 10 10 2016  08 43  -15.5125 26130.2   3399.8   7.4131 26350.5
 10 10 2016  08 44  -15.5122 26130.2   3399.7   7.4128 26350.4
 10 10 2016  08 45  -15.5121 26130.0   3399.9   7.4135 26350.3
 10 10 2016  08 46  -15.5116 26130.1   3400.0   7.4135 26350.3
 10 10 2016  08 47  -15.5112 26130.1   3400.2   7.4141 26350.4
 10 10 2016  08 48  -15.5115 26130.2   3399.5   7.4125 26350.4
 10 10 2016  08 49  -15.5107 26130.4   3400.3   7.4141 26350.7
 10 10 2016  08 50  -15.5102 26130.3   3400.6   7.4148 26350.6
 10 10 2016  08 51  -15.5105 26130.2   3400.2   7.4140 26350.5
 10 10 2016  08 52  -15.5104 26130.3   3400.2   7.4138 26350.6
 10 10 2016  08 53  -15.5107 26129.9   3400.0   7.4137 26350.2
 10 10 2016  08 54  -15.5105 26129.8   3400.4   7.4144 26350.1
 10 10 2016  08 55  -15.5107 26129.7   3399.7   7.4130 26350.0
 10 10 2016  08 56  -15.5099 26129.7   3400.7   7.4151 26350.1
 10 10 2016  08 57  -15.5097 26129.5   3401.4   7.4167 26350.0
 10 10 2016  08 58  -15.5099 26129.5   3400.9   7.4158 26349.9
 10 10 2016  08 59  -15.5097 26129.7   3400.2   7.4141 26350.0
 10 10 2016  09 00  -15.5100 26129.5   3400.3   7.4143 26349.8
 10 10 2016  09 01  -15.5104 26129.6   3400.5   7.4147 26349.9
 10 10 2016  09 02  -15.5106 26129.7   3400.4   7.4145 26350.0
 10 10 2016  09 03  -15.5106 26129.7   3400.6   7.4150 26350.1
 10 10 2016  09 04  -15.5107 26129.8   3400.7   7.4151 26350.2
 10 10 2016  09 05  -15.5106 26129.8   3400.9   7.4155 26350.2
 10 10 2016  09 06  -15.5106 26129.6   3400.9   7.4157 26350.0
 10 10 2016  09 07  -15.5107 26129.5   3401.0   7.4159 26350.0
 10 10 2016  09 08  -15.5102 26129.6   3401.0   7.4159 26350.0
 10 10 2016  09 09  -15.5102 26129.4   3400.8   7.4155 26349.8
 10 10 2016  09 10  -15.5099 26129.1   3400.9   7.4157 26349.5
 10 10 2016  09 11  -15.5094 26128.7   3401.0   7.4161 26349.1
 10 10 2016  09 12  -15.5088 26128.3   3401.1   7.4164 26348.7
 10 10 2016  09 13  -15.5095 26127.7   3400.0   7.4142 26348.0
 10 10 2016  09 14  -15.5081 26127.7   3401.3   7.4170 26348.1
 10 10 2016  09 15  -15.5081 26127.3   3400.9   7.4163 26347.7
 10 10 2016  09 16  -15.5079 26127.0   3401.0   7.4166 26347.4
 10 10 2016  09 17  -15.5072 26126.9   3402.6   7.4201 26347.5
 10 10 2016  09 18  -15.5069 26127.1   3402.7   7.4202 26347.8
 10 10 2016  09 19  -15.5080 26127.3   3401.2   7.4169 26347.8
 10 10 2016  09 20  -15.5069 26127.4   3403.2   7.4212 26348.1
 10 10 2016  09 21  -15.5071 26127.4   3403.1   7.4209 26348.1
 10 10 2016  09 22  -15.5074 26127.5   3401.7   7.4180 26348.0
 10 10 2016  09 23  -15.5062 26127.5   3403.3   7.4213 26348.3
 10 10 2016  09 24  -15.5075 26127.3   3402.0   7.4187 26347.9
 10 10 2016  09 25  -15.5065 26127.5   3401.9   7.4184 26348.0
 10 10 2016  09 26  -15.5072 26127.0   3402.1   7.4190 26347.6
 10 10 2016  09 27  -15.5067 26126.8   3404.1   7.4233 26347.6
 10 10 2016  09 28  -15.5067 26126.4   3404.2   7.4236 26347.3
 10 10 2016  09 29  -15.5064 26126.6   3403.2   7.4215 26347.3
 10 10 2016  09 30  -15.5063 26126.5   3403.6   7.4223 26347.3
 10 10 2016  09 31  -15.5059 26126.5   3403.4   7.4219 26347.2
 10 10 2016  09 32  -15.5063 26126.1   3403.9   7.4232 26347.0
 10 10 2016  09 33  -15.5058 26126.0   3404.2   7.4237 26346.8
 10 10 2016  09 34  -15.5059 26125.7   3404.3   7.4241 26346.6
 10 10 2016  09 35  -15.5064 26125.4   3404.5   7.4247 26346.3
 10 10 2016  09 36  -15.5062 26124.9   3405.2   7.4262 26345.8
 10 10 2016  09 37  -15.5054 26124.8   3405.1   7.4260 26345.8
 10 10 2016  09 38  -15.5060 26124.2   3405.3   7.4267 26345.2
 10 10 2016  09 39  -15.5057 26124.1   3405.3   7.4267 26345.1
 10 10 2016  09 40  -15.5055 26124.1   3404.3   7.4245 26344.9
 10 10 2016  09 41  -15.5050 26124.0   3405.5   7.4272 26345.0
 10 10 2016  09 42  -15.5063 26123.3   3405.0   7.4262 26344.3
 10 10 2016  09 43  -15.5062 26123.1   3404.0   7.4242 26343.9
 10 10 2016  09 44  -15.5057 26122.5   3406.5   7.4298 26343.7
 10 10 2016  09 45  -15.5059 26122.6   3405.3   7.4271 26343.6
 10 10 2016  09 46  -15.5057 26122.3   3405.1   7.4269 26343.3
 10 10 2016  09 47  -15.5050 26122.2   3407.0   7.4309 26343.5
 10 10 2016  09 48  -15.5057 26122.0   3406.2   7.4291 26343.2
 10 10 2016  09 49  -15.5065 26121.7   3406.4   7.4298 26342.8
 10 10 2016  09 50  -15.5071 26121.4   3407.8   7.4328 26342.7
 10 10 2016  09 51  -15.5061 26121.6   3407.9   7.4331 26342.9
 10 10 2016  09 52  -15.5065 26121.6   3407.4   7.4319 26342.9
 10 10 2016  09 53  -15.5067 26121.5   3408.0   7.4333 26342.9
 10 10 2016  09 54  -15.5073 26121.4   3408.9   7.4352 26342.9
 10 10 2016  09 55  -15.5069 26121.4   3409.8   7.4371 26343.0
 10 10 2016  09 56  -15.5069 26121.3   3410.3   7.4383 26343.0
 10 10 2016  09 57  -15.5078 26121.1   3410.3   7.4382 26342.8
 10 10 2016  09 58  -15.5073 26121.1   3410.6   7.4389 26342.8
 10 10 2016  09 59  -15.5065 26121.1   3411.1   7.4401 26342.9
 10 10 2016  10 00  -15.5069 26121.0   3411.8   7.4416 26342.9
 10 10 2016  10 01  -15.5068 26120.9   3411.2   7.4403 26342.7
 10 10 2016  10 02  -15.5067 26120.7   3412.2   7.4426 26342.6
 10 10 2016  10 03  -15.5075 26120.5   3411.4   7.4409 26342.3
 10 10 2016  10 04  -15.5073 26120.4   3412.6   7.4434 26342.3
 10 10 2016  10 05  -15.5076 26120.4   3412.6   7.4435 26342.3
 10 10 2016  10 06  -15.5073 26120.2   3412.4   7.4432 26342.2
 10 10 2016  10 07  -15.5074 26119.9   3413.0   7.4444 26341.9
 10 10 2016  10 08  -15.5075 26120.4   3413.5   7.4454 26342.5
 10 10 2016  10 09  -15.5074 26120.0   3413.9   7.4465 26342.2
 10 10 2016  10 10  -15.5073 26120.1   3414.3   7.4472 26342.3
 10 10 2016  10 11  -15.5075 26120.5   3414.7   7.4480 26342.7
 10 10 2016  10 12  -15.5070 26120.8   3415.0   7.4486 26343.1
 10 10 2016  10 13  -15.5069 26120.7   3415.3   7.4492 26343.0
 10 10 2016  10 14  -15.5062 26120.8   3415.9   7.4504 26343.2
 10 10 2016  10 15  -15.5061 26120.5   3417.3   7.4535 26343.1
 10 10 2016  10 16  -15.5058 26120.6   3417.8   7.4547 26343.2
 10 10 2016  10 17  -15.5067 26120.5   3417.2   7.4533 26343.1
 10 10 2016  10 18  -15.5067 26120.9   3416.8   7.4523 26343.4
 10 10 2016  10 19  -15.5064 26121.2   3417.5   7.4538 26343.8
 10 10 2016  10 20  -15.5056 26121.4   3417.4   7.4535 26344.0
 10 10 2016  10 21  -15.5057 26121.2   3417.6   7.4539 26343.9
 10 10 2016  10 22  -15.5054 26121.3   3418.0   7.4548 26344.0
 10 10 2016  10 23  -15.5055 26121.1   3418.1   7.4552 26343.7
 10 10 2016  10 24  -15.5048 26121.1   3418.0   7.4549 26343.8
 10 10 2016  10 25  -15.5047 26121.2   3418.9   7.4568 26344.0
 10 10 2016  10 26  -15.5055 26121.3   3418.7   7.4563 26344.1
 10 10 2016  10 27  -15.5046 26121.9   3418.5   7.4557 26344.7
 10 10 2016  10 28  -15.5050 26121.8   3418.9   7.4566 26344.6
 10 10 2016  10 29  -15.5053 26121.6   3419.0   7.4569 26344.4
 10 10 2016  10 30  -15.5043 26121.6   3419.8   7.4586 26344.5
 10 10 2016  10 31  -15.5052 26121.5   3419.6   7.4582 26344.3
 10 10 2016  10 32  -15.5036 26121.6   3421.0   7.4612 26344.6
 10 10 2016  10 33  -15.5042 26121.7   3420.5   7.4602 26344.7
 10 10 2016  10 34  -15.5034 26122.1   3420.3   7.4597 26345.1
 10 10 2016  10 35  -15.5045 26121.9   3420.5   7.4600 26344.9
 10 10 2016  10 36  -15.5044 26121.9   3420.8   7.4607 26344.9
 10 10 2016  10 37  -15.5052 26121.8   3421.2   7.4615 26344.9
 10 10 2016  10 38  -15.5054 26122.0   3421.3   7.4617 26345.1
 10 10 2016  10 39  -15.5050 26121.9   3420.9   7.4610 26344.9
 10 10 2016  10 40  -15.5048 26121.7   3420.8   7.4609 26344.8
 10 10 2016  10 41  -15.5048 26121.5   3421.6   7.4625 26344.7
 10 10 2016  10 42  -15.5052 26121.0   3421.5   7.4624 26344.2
 10 10 2016  10 43  -15.5053 26120.7   3421.8   7.4633 26343.8
 10 10 2016  10 44  -15.5055 26120.0   3422.1   7.4640 26343.2
 10 10 2016  10 45  -15.5052 26119.8   3422.3   7.4646 26343.0
 10 10 2016  10 46  -15.5049 26120.0   3423.0   7.4659 26343.4
 10 10 2016  10 47  -15.5043 26120.4   3423.5   7.4670 26343.8
 10 10 2016  10 48  -15.5038 26120.4   3423.7   7.4674 26343.8
 10 10 2016  10 49  -15.5035 26120.6   3424.1   7.4683 26344.1
 10 10 2016  10 50  -15.5032 26121.0   3423.9   7.4677 26344.4
 10 10 2016  10 51  -15.5027 26121.1   3425.4   7.4708 26344.8
 10 10 2016  10 52  -15.5022 26121.8   3424.0   7.4676 26345.3
 10 10 2016  10 53  -15.5014 26121.9   3425.2   7.4702 26345.5
 10 10 2016  10 54  -15.5012 26121.6   3425.6   7.4711 26345.2
 10 10 2016  10 55  -15.5017 26121.2   3424.6   7.4691 26344.7
 10 10 2016  10 56  -15.5007 26121.2   3425.4   7.4709 26344.9
 10 10 2016  10 57  -15.5010 26121.3   3425.9   7.4720 26345.0
 10 10 2016  10 58  -15.5007 26121.2   3425.7   7.4715 26344.9
 10 10 2016  10 59  -15.5012 26121.4   3425.6   7.4711 26345.1
 10 10 2016  11 00  -15.5010 26121.6   3425.8   7.4716 26345.3
 10 10 2016  11 01  -15.5004 26121.2   3426.1   7.4724 26345.0
 10 10 2016  11 02  -15.5001 26120.9   3426.1   7.4724 26344.6
 10 10 2016  11 03  -15.5001 26120.8   3426.2   7.4728 26344.6
 10 10 2016  11 04  -15.5000 26120.9   3426.5   7.4734 26344.7
 10 10 2016  11 05  -15.5000 26121.4   3426.8   7.4739 26345.2
 10 10 2016  11 06  -15.4995 26122.3   3427.4   7.4749 26346.2
 10 10 2016  11 07  -15.4996 26122.5   3427.6   7.4752 26346.4
 10 10 2016  11 08  -15.4996 26122.8   3427.7   7.4754 26346.7
 10 10 2016  11 09  -15.4994 26123.3   3428.1   7.4761 26347.3
 10 10 2016  11 10  -15.4990 26123.5   3427.2   7.4740 26347.4
 10 10 2016  11 11  -15.4991 26123.4   3427.3   7.4743 26347.3
 10 10 2016  11 12  -15.4992 26123.4   3427.9   7.4756 26347.3
 10 10 2016  11 13  -15.4980 26123.8   3427.8   7.4754 26347.7
 10 10 2016  11 14  -15.4978 26123.6   3428.0   7.4758 26347.6
 10 10 2016  11 15  -15.4979 26123.5   3428.0   7.4757 26347.4
 10 10 2016  11 16  -15.4980 26123.7   3427.1   7.4737 26347.5
 10 10 2016  11 17  -15.4982 26123.7   3428.5   7.4768 26347.7
 10 10 2016  11 18  -15.4978 26123.7   3427.5   7.4746 26347.6
 10 10 2016  11 19  -15.4982 26123.2   3427.2   7.4741 26347.1
 10 10 2016  11 20  -15.4980 26123.0   3427.6   7.4752 26346.9
 10 10 2016  11 21  -15.4978 26122.9   3429.0   7.4780 26347.0
 10 10 2016  11 22  -15.4981 26123.2   3427.3   7.4743 26347.1
 10 10 2016  11 23  -15.4983 26123.1   3427.6   7.4752 26347.0
 10 10 2016  11 24  -15.4975 26123.2   3428.7   7.4773 26347.2
 10 10 2016  11 25  -15.4972 26123.3   3428.6   7.4771 26347.3
 10 10 2016  11 26  -15.4972 26123.4   3428.5   7.4768 26347.4
 10 10 2016  11 27  -15.4969 26123.9   3427.6   7.4747 26347.8
 10 10 2016  11 28  -15.4962 26124.1   3429.6   7.4790 26348.2
 10 10 2016  11 29  -15.4959 26125.0   3428.4   7.4762 26349.0
 10 10 2016  11 30  -15.4951 26125.8   3430.0   7.4795 26349.9
 10 10 2016  11 31  -15.4959 26126.2   3427.6   7.4742 26350.1
 10 10 2016  11 32  -15.4955 26126.4   3427.2   7.4732 26350.2
 10 10 2016  11 33  -15.4958 26126.8   3426.9   7.4724 26350.6
 10 10 2016  11 34  -15.4950 26127.2   3428.3   7.4753 26351.1
 10 10 2016  11 35  -15.4957 26127.6   3428.1   7.4748 26351.5
 10 10 2016  11 36  -15.4964 26128.1   3427.6   7.4736 26351.9
 10 10 2016  11 37  -15.4954 26128.8   3427.7   7.4737 26352.7
 10 10 2016  11 38  -15.4941 26129.6   3426.5   7.4709 26353.3
 10 10 2016  11 39  -15.4950 26129.9   3426.0   7.4697 26353.6
 10 10 2016  11 40  -15.4942 26130.7   3425.5   7.4684 26354.3
 10 10 2016  11 41  -15.4928 26131.1   3425.9   7.4692 26354.7
 10 10 2016  11 42  -15.4934 26131.5   3425.8   7.4688 26355.1
 10 10 2016  11 43  -15.4931 26132.2   3425.6   7.4681 26355.7
 10 10 2016  11 44  -15.4932 26132.4   3424.9   7.4665 26355.9
 10 10 2016  11 45  -15.4932 26132.7   3424.6   7.4659 26356.2
 10 10 2016  11 46  -15.4937 26133.1   3424.1   7.4647 26356.4
 10 10 2016  11 47  -15.4930 26133.2   3424.1   7.4645 26356.6
 10 10 2016  11 48  -15.4930 26133.5   3423.8   7.4640 26356.8
 10 10 2016  11 49  -15.4925 26133.7   3423.4   7.4629 26357.0
 10 10 2016  11 50  -15.4932 26133.2   3423.1   7.4624 26356.5
 10 10 2016  11 51  -15.4932 26133.3   3423.2   7.4627 26356.6
 10 10 2016  11 52  -15.4930 26133.8   3422.9   7.4619 26357.0
 10 10 2016  11 53  -15.4940 26133.7   3422.4   7.4609 26356.9
 10 10 2016  11 54  -15.4945 26133.6   3422.5   7.4611 26356.7
 10 10 2016  11 55  -15.4940 26134.0   3422.1   7.4600 26357.1
 10 10 2016  11 56  -15.4941 26134.6   3422.9   7.4616 26357.8
 10 10 2016  11 57  -15.4945 26134.7   3422.1   7.4598 26357.8
 10 10 2016  11 58  -15.4943 26135.1   3421.8   7.4592 26358.2
 10 10 2016  11 59  -15.4938 26135.2   3421.8   7.4591 26358.2
 10 10 2016  12 00  -15.4935 26135.0   3421.7   7.4589 26358.0
 10 10 2016  12 01  -15.4933 26135.1   3421.4   7.4582 26358.1
 10 10 2016  12 02  -15.4935 26135.3   3422.0   7.4595 26358.4
 10 10 2016  12 03  -15.4927 26135.8   3421.2   7.4576 26358.7
 10 10 2016  12 04  -15.4930 26136.1   3420.8   7.4567 26359.0
 10 10 2016  12 05  -15.4929 26136.8   3420.6   7.4560 26359.6
 10 10 2016  12 06  -15.4933 26137.1   3420.4   7.4556 26360.0
 10 10 2016  12 07  -15.4932 26137.7   3420.6   7.4558 26360.6
 10 10 2016  12 08  -15.4946 26137.5   3419.8   7.4542 26360.3
 10 10 2016  12 09  -15.4943 26137.5   3419.3   7.4531 26360.2
 10 10 2016  12 10  -15.4943 26137.4   3419.1   7.4526 26360.1
 10 10 2016  12 11  -15.4955 26136.8   3418.5   7.4516 26359.5
 10 10 2016  12 12  -15.4953 26136.8   3418.9   7.4523 26359.5
 10 10 2016  12 13  -15.4957 26137.2   3418.6   7.4516 26359.8
 10 10 2016  12 14  -15.4948 26138.1   3418.8   7.4518 26360.7
 10 10 2016  12 15  -15.4942 26139.0   3418.9   7.4518 26361.6
 10 10 2016  12 16  -15.4934 26140.0   3418.1   7.4498 26362.5
 10 10 2016  12 17  -15.4928 26140.7   3418.1   7.4497 26363.2
 10 10 2016  12 18  -15.4927 26141.0   3417.4   7.4480 26363.4
 10 10 2016  12 19  -15.4926 26141.1   3417.5   7.4483 26363.6
 10 10 2016  12 20  -15.4927 26141.9   3416.6   7.4461 26364.2
 10 10 2016  12 21  -15.4929 26142.6   3415.2   7.4429 26364.7
 10 10 2016  12 22  -15.4929 26142.9   3415.2   7.4427 26365.1
 10 10 2016  12 23  -15.4927 26143.3   3415.0   7.4421 26365.4
 10 10 2016  12 24  -15.4929 26144.0   3414.4   7.4406 26366.0
 10 10 2016  12 25  -15.4925 26144.4   3413.7   7.4391 26366.3
 10 10 2016  12 26  -15.4929 26144.8   3412.8   7.4370 26366.6
 10 10 2016  12 27  -15.4936 26144.7   3412.1   7.4354 26366.4
 10 10 2016  12 28  -15.4937 26144.9   3412.1   7.4355 26366.7
 10 10 2016  12 29  -15.4936 26145.7   3410.6   7.4320 26367.2
 10 10 2016  12 30  -15.4924 26146.5   3411.4   7.4336 26368.1
 10 10 2016  12 31  -15.4921 26147.4   3410.1   7.4306 26368.8
 10 10 2016  12 32  -15.4917 26148.1   3410.6   7.4314 26369.6
 10 10 2016  12 33  -15.4924 26148.5   3409.6   7.4291 26369.8
 10 10 2016  12 34  -15.4912 26149.0   3409.1   7.4278 26370.3
 10 10 2016  12 35  -15.4916 26149.2   3407.8   7.4250 26370.4
 10 10 2016  12 36  -15.4909 26149.4   3407.1   7.4235 26370.4
 10 10 2016  12 37  -15.4914 26149.5   3406.1   7.4213 26370.4
 10 10 2016  12 38  -15.4908 26150.3   3405.6   7.4200 26371.1
 10 10 2016  12 39  -15.4913 26150.4   3406.6   7.4221 26371.4
 10 10 2016  12 40  -15.4920 26150.8   3404.6   7.4177 26371.5
 10 10 2016  12 41  -15.4925 26150.5   3404.8   7.4181 26371.2
 10 10 2016  12 42  -15.4925 26150.2   3404.6   7.4179 26370.9
 10 10 2016  12 43  -15.4932 26150.2   3403.5   7.4156 26370.8
 10 10 2016  12 44  -15.4932 26150.7   3403.7   7.4157 26371.3
 10 10 2016  12 45  -15.4933 26150.8   3403.8   7.4159 26371.3
 10 10 2016  12 46  -15.4947 26150.6   3402.6   7.4134 26371.0
 10 10 2016  12 47  -15.4948 26150.7   3402.5   7.4131 26371.1
 10 10 2016  12 48  -15.4947 26150.8   3402.4   7.4130 26371.2
 10 10 2016  12 49  -15.4953 26150.5   3402.5   7.4131 26370.9
 10 10 2016  12 50  -15.4955 26150.6   3401.7   7.4114 26370.9
 10 10 2016  12 51  -15.4958 26150.6   3401.3   7.4107 26370.9
 10 10 2016  12 52  -15.4957 26151.3   3402.0   7.4119 26371.6
 10 10 2016  12 53  -15.4956 26151.8   3401.1   7.4098 26372.0
 10 10 2016  12 54  -15.4956 26152.1   3401.1   7.4098 26372.3
 10 10 2016  12 55  -15.4960 26152.0   3400.3   7.4081 26372.1
 10 10 2016  12 56  -15.4956 26152.3   3400.1   7.4076 26372.4
 10 10 2016  12 57  -15.4965 26152.2   3399.0   7.4051 26372.2
 10 10 2016  12 58  -15.4957 26152.0   3399.2   7.4057 26372.0
 10 10 2016  12 59  -15.4965 26152.2   3399.6   7.4064 26372.2
 10 10 2016  13 00  -15.4962 26152.9   3398.0   7.4028 26372.7
 10 10 2016  13 01  -15.4965 26152.8   3398.4   7.4038 26372.7
 10 10 2016  13 02  -15.4967 26152.6   3399.0   7.4050 26372.5
 10 10 2016  13 03  -15.4978 26152.2   3398.2   7.4036 26372.0
 10 10 2016  13 04  -15.4978 26152.0   3398.2   7.4035 26371.8
 10 10 2016  13 05  -15.4974 26152.2   3397.4   7.4017 26372.0
 10 10 2016  13 06  -15.4978 26152.1   3397.9   7.4028 26371.9
 10 10 2016  13 07  -15.4977 26152.4   3399.2   7.4057 26372.4
 10 10 2016  13 08  -15.4983 26152.5   3398.8   7.4048 26372.4
 10 10 2016  13 09  -15.4992 26152.8   3398.1   7.4031 26372.6
 10 10 2016  13 10  -15.4993 26152.9   3399.0   7.4050 26372.9
 10 10 2016  13 11  -15.4993 26153.6   3398.1   7.4029 26373.4
 10 10 2016  13 12  -15.4986 26154.2   3397.7   7.4018 26374.0
 10 10 2016  13 13  -15.4981 26154.7   3398.0   7.4024 26374.5
 10 10 2016  13 14  -15.4986 26155.0   3397.7   7.4016 26374.8
 10 10 2016  13 15  -15.4981 26155.6   3396.3   7.3984 26375.2
 10 10 2016  13 16  -15.4982 26155.9   3396.9   7.3997 26375.5
 10 10 2016  13 17  -15.4984 26156.3   3395.7   7.3969 26375.8
 10 10 2016  13 18  -15.4980 26157.0   3396.7   7.3989 26376.6
 10 10 2016  13 19  -15.4978 26157.8   3396.7   7.3986 26377.5
 10 10 2016  13 20  -15.4975 26158.9   3395.6   7.3959 26378.3
 10 10 2016  13 21  -15.4966 26159.8   3395.1   7.3946 26379.2
 10 10 2016  13 22  -15.4973 26159.8   3394.3   7.3930 26379.1
 10 10 2016  13 23  -15.4970 26160.2   3393.6   7.3914 26379.4
 10 10 2016  13 24  -15.4965 26160.7   3393.4   7.3908 26379.8
 10 10 2016  13 25  -15.4969 26160.8   3392.7   7.3891 26379.9
 10 10 2016  13 26  -15.4965 26160.9   3392.1   7.3880 26379.9
 10 10 2016  13 27  -15.4963 26161.2   3391.6   7.3868 26380.1
 10 10 2016  13 28  -15.4964 26161.3   3391.1   7.3856 26380.2
 10 10 2016  13 29  -15.4960 26161.4   3390.5   7.3844 26380.2
 10 10 2016  13 30  -15.4960 26161.6   3389.9   7.3830 26380.4
 10 10 2016  13 31  -15.4962 26162.2   3390.3   7.3836 26380.9
 10 10 2016  13 32  -15.4961 26162.6   3389.6   7.3820 26381.2
 10 10 2016  13 33  -15.4963 26162.7   3389.0   7.3808 26381.3
 10 10 2016  13 34  -15.4959 26163.4   3388.7   7.3800 26382.0
 10 10 2016  13 35  -15.4959 26163.6   3387.9   7.3782 26382.0
 10 10 2016  13 36  -15.4962 26163.2   3387.1   7.3766 26381.6
 10 10 2016  13 37  -15.4960 26162.9   3386.7   7.3757 26381.2
 10 10 2016  13 38  -15.4956 26162.6   3386.6   7.3756 26380.9
 10 10 2016  13 39  -15.4955 26162.6   3386.4   7.3752 26380.9
 10 10 2016  13 40  -15.4950 26162.6   3386.3   7.3749 26380.8
 10 10 2016  13 41  -15.4946 26162.2   3386.2   7.3748 26380.4
 10 10 2016  13 42  -15.4948 26162.0   3386.9   7.3765 26380.3
 10 10 2016  13 43  -15.4952 26162.1   3386.8   7.3762 26380.5
 10 10 2016  13 44  -15.4954 26162.5   3386.3   7.3749 26380.7
 10 10 2016  13 45  -15.4953 26162.5   3386.4   7.3753 26380.7
 10 10 2016  13 46  -15.4973 26161.8   3386.5   7.3757 26380.1
 10 10 2016  13 47  -15.4980 26161.4   3386.1   7.3748 26379.6
 10 10 2016  13 48  -15.4980 26161.0   3386.0   7.3747 26379.2
 10 10 2016  13 49  -15.4977 26160.6   3386.6   7.3761 26378.9
 10 10 2016  13 50  -15.4985 26160.2   3386.6   7.3763 26378.5
 10 10 2016  13 51  -15.4980 26160.2   3387.1   7.3774 26378.6
 10 10 2016  13 52  -15.4986 26160.1   3386.7   7.3766 26378.5
 10 10 2016  13 53  -15.4989 26159.6   3387.5   7.3784 26378.0
 10 10 2016  13 54  -15.4992 26159.2   3388.0   7.3795 26377.7
 10 10 2016  13 55  -15.4985 26159.9   3387.9   7.3792 26378.3
 10 10 2016  13 56  -15.4982 26160.7   3388.4   7.3800 26379.2
 10 10 2016  13 57  -15.4977 26161.2   3388.7   7.3806 26379.8
 10 10 2016  13 58  -15.4964 26161.7   3389.3   7.3816 26380.3
 10 10 2016  13 59  -15.4965 26162.2   3387.6   7.3779 26380.7
 10 10 2016  14 00  -15.4971 26163.1   3388.1   7.3787 26381.5
 10 10 2016  14 01  -15.4972 26163.9   3386.9   7.3758 26382.2
 10 10 2016  14 02  -15.4960 26165.0   3387.8   7.3774 26383.4
 10 10 2016  14 03  -15.4968 26166.8   3387.4   7.3761 26385.2
 10 10 2016  14 04  -15.4958 26168.5   3385.9   7.3724 26386.6
 10 10 2016  14 05  -15.4954 26169.3   3385.6   7.3717 26387.4
 10 10 2016  14 06  -15.4957 26170.4   3383.3   7.3663 26388.1
 10 10 2016  14 07  -15.4956 26170.9   3382.1   7.3636 26388.5
 10 10 2016  14 08  -15.4957 26171.2   3381.4   7.3621 26388.7
 10 10 2016  14 09  -15.4948 26172.0   3380.9   7.3607 26389.5
 10 10 2016  14 10  -15.4964 26172.7   3380.0   7.3586 26390.1
 10 10 2016  14 11  -15.4953 26174.0   3379.8   7.3578 26391.3
 10 10 2016  14 12  -15.4963 26175.1   3379.4   7.3567 26392.3
 10 10 2016  14 13  -15.4956 26175.7   3378.7   7.3550 26392.9
 10 10 2016  14 14  -15.4961 26176.1   3378.3   7.3540 26393.2
 10 10 2016  14 15  -15.4953 26177.3   3377.1   7.3511 26394.2
 10 10 2016  14 16  -15.4952 26177.7   3376.1   7.3489 26394.5
 10 10 2016  14 17  -15.4966 26177.6   3375.2   7.3469 26394.3
 10 10 2016  14 18  -15.4961 26177.4   3375.9   7.3484 26394.2
 10 10 2016  14 19  -15.4952 26178.3   3375.4   7.3471 26395.0
 10 10 2016  14 20  -15.4960 26178.5   3374.7   7.3455 26395.1
 10 10 2016  14 21  -15.4957 26178.6   3373.2   7.3423 26395.0
 10 10 2016  14 22  -15.4954 26178.4   3372.7   7.3412 26394.8
 10 10 2016  14 23  -15.4956 26178.2   3372.6   7.3410 26394.5
 10 10 2016  14 24  -15.4962 26177.3   3372.3   7.3408 26393.6
 10 10 2016  14 25  -15.4958 26176.5   3372.3   7.3410 26392.9
 10 10 2016  14 26  -15.4962 26175.8   3371.9   7.3402 26392.0
 10 10 2016  14 27  -15.4961 26175.5   3372.0   7.3406 26391.8
 10 10 2016  14 28  -15.4963 26175.1   3372.7   7.3423 26391.5
 10 10 2016  14 29  -15.4963 26174.4   3371.9   7.3407 26390.7
 10 10 2016  14 30  -15.4958 26173.8   3373.2   7.3435 26390.2
 10 10 2016  14 31  -15.4950 26173.9   3373.5   7.3442 26390.4
 10 10 2016  14 32  -15.4953 26174.0   3373.5   7.3442 26390.5
 10 10 2016  14 33  -15.4937 26174.5   3373.8   7.3447 26391.0
 10 10 2016  14 34  -15.4944 26174.3   3373.9   7.3450 26390.8
 10 10 2016  14 35  -15.4943 26174.1   3373.1   7.3434 26390.6
 10 10 2016  14 36  -15.4944 26174.4   3374.1   7.3454 26391.0
 10 10 2016  14 37  -15.4933 26175.5   3375.1   7.3473 26392.2
 10 10 2016  14 38  -15.4930 26176.8   3375.3   7.3473 26393.5
 10 10 2016  14 39  -15.4933 26177.8   3375.3   7.3470 26394.5
 10 10 2016  14 40  -15.4931 26177.9   3375.8   7.3481 26394.6
 10 10 2016  14 41  -15.4940 26177.4   3374.0   7.3444 26394.0
 10 10 2016  14 42  -15.4947 26176.0   3373.8   7.3443 26392.5
 10 10 2016  14 43  -15.4942 26175.8   3373.3   7.3432 26392.2
 10 10 2016  14 44  -15.4935 26175.8   3374.1   7.3450 26392.4
 10 10 2016  14 45  -15.4928 26177.0   3374.3   7.3452 26393.6
 10 10 2016  14 46  -15.4926 26178.1   3374.0   7.3441 26394.6
 10 10 2016  14 47  -15.4923 26178.7   3375.2   7.3466 26395.4
 10 10 2016  14 48  -15.4917 26179.1   3375.1   7.3461 26395.8
 10 10 2016  14 49  -15.4926 26179.2   3373.9   7.3436 26395.7
 10 10 2016  14 50  -15.4927 26179.2   3375.0   7.3460 26395.8
 10 10 2016  14 51  -15.4929 26179.4   3374.2   7.3443 26396.0
 10 10 2016  14 52  -15.4930 26179.5   3372.7   7.3410 26395.9
 10 10 2016  14 53  -15.4929 26179.8   3373.1   7.3418 26396.2
 10 10 2016  14 54  -15.4926 26180.3   3373.1   7.3417 26396.7
 10 10 2016  14 55  -15.4929 26180.8   3372.4   7.3400 26397.1
 10 10 2016  14 56  -15.4931 26180.7   3371.6   7.3383 26396.9
 10 10 2016  14 57  -15.4931 26180.3   3371.3   7.3378 26396.5
 10 10 2016  14 58  -15.4927 26180.2   3371.5   7.3381 26396.4
 10 10 2016  14 59  -15.4920 26180.9   3371.3   7.3376 26397.1
 10 10 2016  15 00  -15.4919 26181.3   3371.6   7.3381 26397.5
 10 10 2016  15 01  -15.4915 26182.0   3370.6   7.3357 26398.1
 10 10 2016  15 02  -15.4916 26181.9   3370.9   7.3365 26398.0
 10 10 2016  15 03  -15.4923 26181.6   3369.1   7.3325 26397.5
 10 10 2016  15 04  -15.4921 26181.0   3370.1   7.3351 26397.0
 10 10 2016  15 05  -15.4923 26179.7   3370.0   7.3350 26395.7
 10 10 2016  15 06  -15.4924 26179.3   3369.8   7.3348 26395.3
 10 10 2016  15 07  -15.4922 26179.4   3370.6   7.3365 26395.5
 10 10 2016  15 08  -15.4925 26179.0   3370.1   7.3355 26395.0
 10 10 2016  15 09  -15.4927 26178.2   3370.6   7.3369 26394.3
 10 10 2016  15 10  -15.4941 26177.8   3370.8   7.3373 26393.9
 10 10 2016  15 11  -15.4941 26177.9   3370.3   7.3363 26393.9
 10 10 2016  15 12  -15.4938 26177.6   3370.1   7.3359 26393.7
 10 10 2016  15 13  -15.4946 26176.7   3369.9   7.3356 26392.8
 10 10 2016  15 14  -15.4954 26176.0   3370.0   7.3362 26392.1
 10 10 2016  15 15  -15.4942 26175.6   3371.8   7.3401 26391.9
 10 10 2016  15 16  -15.4941 26175.7   3370.9   7.3381 26391.9
 10 10 2016  15 17  -15.4944 26175.6   3370.5   7.3372 26391.7
 10 10 2016  15 18  -15.4945 26175.0   3370.4   7.3373 26391.1
 10 10 2016  15 19  -15.4937 26174.4   3371.5   7.3398 26390.6
 10 10 2016  15 20  -15.4946 26172.9   3371.1   7.3393 26389.1
 10 10 2016  15 21  -15.4952 26171.6   3370.4   7.3381 26387.7
 10 10 2016  15 22  -15.4950 26170.1   3370.5   7.3388 26386.2
 10 10 2016  15 23  -15.4957 26169.6   3370.8   7.3397 26385.8
 10 10 2016  15 24  -15.4951 26169.9   3372.4   7.3431 26386.3
 10 10 2016  15 25  -15.4953 26169.5   3372.8   7.3439 26385.9
 10 10 2016  15 26  -15.4967 26168.6   3373.4   7.3455 26385.1
 10 10 2016  15 27  -15.4968 26168.3   3373.1   7.3449 26384.8
 10 10 2016  15 28  -15.4955 26168.8   3373.8   7.3463 26385.4
 10 10 2016  15 29  -15.4956 26169.1   3374.0   7.3467 26385.7
 10 10 2016  15 30  -15.4944 26169.5   3374.2   7.3471 26386.2
 10 10 2016  15 31  -15.4948 26169.7   3373.9   7.3463 26386.3
 10 10 2016  15 32  -15.4949 26171.0   3372.4   7.3427 26387.3
 10 10 2016  15 33  -15.4952 26171.6   3372.2   7.3420 26387.9
 10 10 2016  15 34  -15.4937 26172.5   3373.4   7.3444 26389.0
 10 10 2016  15 35  -15.4932 26173.2   3371.6   7.3404 26389.4
 10 10 2016  15 36  -15.4938 26173.0   3370.1   7.3372 26389.1
 10 10 2016  15 37  -15.4935 26173.6   3370.4   7.3377 26389.7
 10 10 2016  15 38  -15.4923 26176.8   3370.3   7.3367 26392.8
 10 10 2016  15 39  -15.4918 26178.8   3371.3   7.3381 26394.9
 10 10 2016  15 40  -15.4909 26180.9   3370.6   7.3361 26397.0
 10 10 2016  15 41  -15.4918 26182.0   3368.5   7.3312 26397.8
 10 10 2016  15 42  -15.4914 26183.3   3367.1   7.3279 26399.0
 10 10 2016  15 43  -15.4902 26183.7   3365.8   7.3249 26399.2
 10 10 2016  15 44  -15.4903 26184.0   3364.6   7.3222 26399.2
 10 10 2016  15 45  -15.4921 26183.5   3362.6   7.3181 26398.5
 10 10 2016  15 46  -15.4943 26181.6   3360.6   7.3144 26396.4
 10 10 2016  15 47  -15.4957 26180.9   3359.4   7.3119 26395.6
 10 10 2016  15 48  -15.4973 26178.8   3358.8   7.3113 26393.4
 10 10 2016  15 49  -15.4985 26176.2   3357.7   7.3096 26390.7
 10 10 2016  15 50  -15.4998 26174.3   3357.7   7.3100 26388.8
 10 10 2016  15 51  -15.4997 26173.0   3358.3   7.3117 26387.6
 10 10 2016  15 52  -15.5005 26172.5   3358.3   7.3119 26387.1
 10 10 2016  15 53  -15.5005 26171.9   3360.1   7.3160 26386.7
 10 10 2016  15 54  -15.5008 26171.5   3360.1   7.3160 26386.3
 10 10 2016  15 55  -15.4999 26172.5   3361.3   7.3183 26387.4
 10 10 2016  15 56  -15.5004 26173.4   3360.9   7.3173 26388.3
 10 10 2016  15 57  -15.4984 26175.6   3362.5   7.3202 26390.7
 10 10 2016  15 58  -15.4975 26179.3   3362.2   7.3185 26394.3
 10 10 2016  15 59  -15.4958 26183.7   3362.9   7.3186 26398.8
 10 10 2016  16 00  -15.4941 26187.1   3363.9   7.3198 26402.3
 10 10 2016  16 01  -15.4951 26189.2   3360.9   7.3128 26404.0
 10 10 2016  16 02  -15.4960 26190.7   3358.3   7.3069 26405.2
 10 10 2016  16 03  -15.4963 26191.6   3357.6   7.3050 26406.0
 10 10 2016  16 04  -15.4975 26192.0   3355.4   7.3003 26406.1
 10 10 2016  16 05  -15.4988 26191.2   3354.1   7.2977 26405.0
 10 10 2016  16 06  -15.5007 26190.0   3352.2   7.2940 26403.7
 10 10 2016  16 07  -15.5014 26188.3   3352.0   7.2941 26401.9
 10 10 2016  16 08  -15.5021 26187.3   3350.6   7.2912 26400.7
 10 10 2016  16 09  -15.5026 26185.5   3351.3   7.2932 26399.1
 10 10 2016  16 10  -15.5044 26184.3   3352.6   7.2963 26398.1
 10 10 2016  16 11  -15.5053 26182.8   3351.6   7.2946 26396.4
 10 10 2016  16 12  -15.5055 26181.4   3352.5   7.2969 26395.1
 10 10 2016  16 13  -15.5071 26180.6   3353.5   7.2993 26394.5
 10 10 2016  16 14  -15.5074 26180.8   3353.6   7.2996 26394.7
 10 10 2016  16 15  -15.5072 26180.4   3354.9   7.3024 26394.5
 10 10 2016  16 16  -15.5083 26179.8   3355.0   7.3027 26393.9
 10 10 2016  16 17  -15.5088 26179.0   3355.5   7.3040 26393.1
 10 10 2016  16 18  -15.5094 26178.4   3355.8   7.3050 26392.7
 10 10 2016  16 19  -15.5094 26177.6   3355.9   7.3054 26391.9
 10 10 2016  16 20  -15.5096 26176.7   3356.5   7.3068 26391.0
 10 10 2016  16 21  -15.5096 26175.2   3356.9   7.3081 26389.5
 10 10 2016  16 22  -15.5095 26173.7   3357.2   7.3092 26388.1
 10 10 2016  16 23  -15.5107 26172.8   3358.2   7.3116 26387.3
 10 10 2016  16 24  -15.5110 26171.6   3358.3   7.3122 26386.2
 10 10 2016  16 25  -15.5109 26170.8   3359.3   7.3144 26385.6
 10 10 2016  16 26  -15.5107 26169.6   3359.5   7.3152 26384.4
 10 10 2016  16 27  -15.5114 26168.4   3360.3   7.3173 26383.3
 10 10 2016  16 28  -15.5112 26167.6   3360.7   7.3185 26382.5
 10 10 2016  16 29  -15.5104 26166.8   3362.1   7.3217 26381.9
 10 10 2016  16 30  -15.5113 26165.7   3361.7   7.3212 26380.8
 10 10 2016  16 31  -15.5099 26164.8   3362.3   7.3227 26379.9
 10 10 2016  16 32  -15.5107 26163.4   3364.3   7.3274 26378.8
 10 10 2016  16 33  -15.5120 26162.5   3363.3   7.3254 26377.8
 10 10 2016  16 34  -15.5122 26162.2   3364.7   7.3285 26377.7
 10 10 2016  16 35  -15.5119 26160.9   3365.1   7.3297 26376.5
 10 10 2016  16 36  -15.5113 26160.4   3365.7   7.3312 26376.1
 10 10 2016  16 37  -15.5113 26161.1   3365.8   7.3311 26376.7
 10 10 2016  16 38  -15.5111 26160.8   3367.6   7.3352 26376.7
 10 10 2016  16 39  -15.5112 26161.6   3368.1   7.3360 26377.5
 10 10 2016  16 40  -15.5129 26161.6   3366.2   7.3320 26377.2
 10 10 2016  16 41  -15.5132 26159.9   3365.1   7.3300 26375.4
 10 10 2016  16 42  -15.5126 26158.2   3364.5   7.3293 26373.7
 10 10 2016  16 43  -15.5112 26157.4   3366.5   7.3337 26373.2
 10 10 2016  16 44  -15.5105 26156.5   3366.2   7.3333 26372.2
 10 10 2016  16 45  -15.5097 26156.3   3367.1   7.3354 26372.1
 10 10 2016  16 46  -15.5093 26157.3   3367.2   7.3353 26373.1
 10 10 2016  16 47  -15.5093 26156.5   3368.9   7.3391 26372.6
 10 10 2016  16 48  -15.5089 26156.0   3367.6   7.3366 26371.9
 10 10 2016  16 49  -15.5087 26155.4   3367.2   7.3357 26371.3
 10 10 2016  16 50  -15.5082 26154.9   3368.2   7.3381 26370.9
 10 10 2016  16 51  -15.5066 26154.5   3368.1   7.3380 26370.5
 10 10 2016  16 52  -15.5066 26153.3   3368.8   7.3399 26369.4
 10 10 2016  16 53  -15.5053 26153.0   3369.2   7.3407 26369.1
 10 10 2016  16 54  -15.5043 26153.5   3369.6   7.3414 26369.7
 10 10 2016  16 55  -15.5040 26154.3   3369.7   7.3416 26370.5
 10 10 2016  16 56  -15.5041 26154.1   3368.5   7.3389 26370.1
 10 10 2016  16 57  -15.5056 26152.3   3369.1   7.3407 26368.4
 10 10 2016  16 58  -15.5058 26151.9   3367.8   7.3380 26367.8
 10 10 2016  16 59  -15.5055 26150.7   3368.4   7.3397 26366.7
 10 10 2016  17 00  -15.5051 26150.7   3368.6   7.3401 26366.8
 10 10 2016  17 01  -15.5046 26150.9   3368.4   7.3397 26366.9
 10 10 2016  17 02  -15.5044 26151.0   3369.0   7.3408 26367.1
 10 10 2016  17 03  -15.5043 26151.3   3371.1   7.3453 26367.7
 10 10 2016  17 04  -15.5047 26151.9   3371.0   7.3451 26368.3
 10 10 2016  17 05  -15.5035 26153.0   3370.8   7.3441 26369.3
 10 10 2016  17 06  -15.5036 26153.7   3371.7   7.3461 26370.1
 10 10 2016  17 07  -15.5035 26153.8   3371.9   7.3464 26370.3
 10 10 2016  17 08  -15.5043 26153.5   3370.4   7.3432 26369.8
 10 10 2016  17 09  -15.5044 26153.2   3370.5   7.3436 26369.5
 10 10 2016  17 10  -15.5045 26152.4   3369.3   7.3411 26368.6
 10 10 2016  17 11  -15.5039 26151.5   3368.2   7.3391 26367.5
 10 10 2016  17 12  -15.5038 26150.7   3369.3   7.3416 26366.9
 10 10 2016  17 13  -15.5047 26150.1   3367.3   7.3375 26366.0
 10 10 2016  17 14  -15.5040 26149.2   3370.1   7.3438 26365.5
 10 10 2016  17 15  -15.5047 26148.4   3368.4   7.3403 26364.5
 10 10 2016  17 16  -15.5034 26147.4   3370.0   7.3440 26363.7
 10 10 2016  17 17  -15.5040 26146.9   3369.3   7.3427 26363.1
 10 10 2016  17 18  -15.5040 26146.4   3370.5   7.3454 26362.8
 10 10 2016  17 19  -15.5050 26146.4   3369.8   7.3439 26362.7
 10 10 2016  17 20  -15.5049 26146.3   3370.4   7.3452 26362.6
 10 10 2016  17 21  -15.5057 26146.6   3369.9   7.3440 26362.9
 10 10 2016  17 22  -15.5051 26147.2   3369.4   7.3429 26363.4
 10 10 2016  17 23  -15.5057 26147.3   3370.0   7.3441 26363.6
 10 10 2016  17 24  -15.5064 26147.6   3369.2   7.3422 26363.8
 10 10 2016  17 25  -15.5064 26148.6   3369.4   7.3425 26364.8
 10 10 2016  17 26  -15.5064 26149.0   3368.4   7.3402 26365.1
 10 10 2016  17 27  -15.5068 26148.7   3369.2   7.3420 26364.9
 10 10 2016  17 28  -15.5076 26148.7   3367.5   7.3384 26364.6
 10 10 2016  17 29  -15.5086 26148.1   3367.0   7.3374 26364.0
 10 10 2016  17 30  -15.5088 26147.8   3366.9   7.3373 26363.7
 10 10 2016  17 31  -15.5072 26148.2   3366.7   7.3367 26364.1
 10 10 2016  17 32  -15.5081 26147.6   3367.1   7.3378 26363.5
 10 10 2016  17 33  -15.5082 26148.4   3365.7   7.3345 26364.1
 10 10 2016  17 34  -15.5085 26148.1   3365.8   7.3348 26363.8
 10 10 2016  17 35  -15.5081 26147.0   3366.7   7.3370 26362.9
 10 10 2016  17 36  -15.5090 26146.5   3364.8   7.3332 26362.1
 10 10 2016  17 37  -15.5092 26145.5   3366.7   7.3374 26361.4
 10 10 2016  17 38  -15.5101 26145.2   3364.2   7.3321 26360.7
 10 10 2016  17 39  -15.5093 26144.7   3365.2   7.3344 26360.4
 10 10 2016  17 40  -15.5100 26144.1   3364.6   7.3334 26359.8
 10 10 2016  17 41  -15.5110 26143.1   3364.9   7.3343 26358.7
 10 10 2016  17 42  -15.5102 26142.2   3364.6   7.3340 26357.9
 10 10 2016  17 43  -15.5105 26141.3   3365.6   7.3363 26357.1
 10 10 2016  17 44  -15.5110 26140.3   3367.0   7.3395 26356.2
 10 10 2016  17 45  -15.5103 26140.6   3366.1   7.3374 26356.4
 10 10 2016  17 46  -15.5104 26139.9   3367.4   7.3405 26355.9
 10 10 2016  17 47  -15.5098 26139.8   3366.9   7.3395 26355.7
 10 10 2016  17 48  -15.5110 26139.5   3367.1   7.3400 26355.5
 10 10 2016  17 49  -15.5125 26138.3   3367.6   7.3413 26354.3
 10 10 2016  17 50  -15.5122 26137.5   3367.1   7.3406 26353.5
 10 10 2016  17 51  -15.5129 26136.1   3366.8   7.3404 26352.1
 10 10 2016  17 52  -15.5131 26135.9   3367.3   7.3415 26351.9
 10 10 2016  17 53  -15.5132 26135.5   3367.2   7.3413 26351.5
 10 10 2016  17 54  -15.5122 26135.6   3367.7   7.3424 26351.7
 10 10 2016  17 55  -15.5118 26135.0   3366.4   7.3397 26351.0
 10 10 2016  17 56  -15.5113 26134.7   3367.9   7.3431 26350.8
 10 10 2016  17 57  -15.5119 26134.7   3367.1   7.3414 26350.7
 10 10 2016  17 58  -15.5124 26134.5   3368.0   7.3433 26350.6
 10 10 2016  17 59  -15.5130 26134.1   3367.2   7.3418 26350.1
 10 10 2016  18 00  -15.5122 26133.6   3368.6   7.3448 26349.8
 10 10 2016  18 01  -15.5133 26133.1   3367.2   7.3420 26349.1
 10 10 2016  18 02  -15.5123 26133.0   3368.2   7.3442 26349.2
 10 10 2016  18 03  -15.5129 26133.0   3367.3   7.3423 26349.0
 10 10 2016  18 04  -15.5135 26132.4   3367.6   7.3430 26348.5
 10 10 2016  18 05  -15.5125 26132.6   3367.3   7.3424 26348.7
 10 10 2016  18 06  -15.5125 26132.7   3367.0   7.3418 26348.7
 10 10 2016  18 07  -15.5140 26132.4   3367.2   7.3422 26348.4
 10 10 2016  18 08  -15.5138 26132.5   3369.2   7.3464 26348.8
 10 10 2016  18 09  -15.5139 26132.9   3368.8   7.3454 26349.1
 10 10 2016  18 10  -15.5126 26133.5   3369.0   7.3458 26349.7
 10 10 2016  18 11  -15.5127 26133.7   3367.7   7.3430 26349.8
 10 10 2016  18 12  -15.5132 26133.6   3368.7   7.3451 26349.8
 10 10 2016  18 13  -15.5131 26134.1   3368.4   7.3443 26350.3
 10 10 2016  18 14  -15.5127 26134.4   3368.4   7.3443 26350.6
 10 10 2016  18 15  -15.5130 26134.5   3367.6   7.3425 26350.6
 10 10 2016  18 16  -15.5108 26134.5   3367.7   7.3426 26350.6
 10 10 2016  18 17  -15.5112 26134.1   3368.0   7.3434 26350.3
 10 10 2016  18 18  -15.5096 26134.2   3369.0   7.3456 26350.5
 10 10 2016  18 19  -15.5111 26134.2   3367.2   7.3418 26350.3
 10 10 2016  18 20  -15.5095 26134.6   3368.6   7.3445 26350.8
 10 10 2016  18 21  -15.5108 26134.7   3368.5   7.3443 26350.9
 10 10 2016  18 22  -15.5101 26135.2   3369.6   7.3465 26351.5
 10 10 2016  18 23  -15.5104 26135.6   3368.9   7.3450 26351.8
 10 10 2016  18 24  -15.5106 26135.4   3369.6   7.3465 26351.8
 10 10 2016  18 25  -15.5097 26135.5   3367.8   7.3426 26351.6
 10 10 2016  18 26  -15.5101 26134.4   3368.8   7.3451 26350.6
 10 10 2016  18 27  -15.5093 26134.1   3370.2   7.3483 26350.5
 10 10 2016  18 28  -15.5102 26134.7   3368.5   7.3443 26350.9
 10 10 2016  18 29  -15.5100 26135.4   3368.5   7.3441 26351.6
 10 10 2016  18 30  -15.5104 26135.3   3370.5   7.3485 26351.8
 10 10 2016  18 31  -15.5120 26135.4   3368.7   7.3445 26351.6
 10 10 2016  18 32  -15.5123 26135.7   3367.9   7.3428 26351.8
 10 10 2016  18 33  -15.5128 26134.8   3368.9   7.3451 26351.0
 10 10 2016  18 34  -15.5145 26134.0   3367.8   7.3430 26350.1
 10 10 2016  18 35  -15.5131 26133.5   3369.5   7.3469 26349.8
 10 10 2016  18 36  -15.5136 26133.3   3370.1   7.3482 26349.7
 10 10 2016  18 37  -15.5149 26133.4   3369.5   7.3469 26349.7
 10 10 2016  18 38  -15.5143 26133.5   3370.9   7.3499 26350.0
 10 10 2016  18 39  -15.5141 26134.5   3369.7   7.3471 26350.9
 10 10 2016  18 40  -15.5126 26134.7   3372.3   7.3525 26351.3
 10 10 2016  18 41  -15.5124 26135.7   3372.6   7.3528 26352.4
 10 10 2016  18 42  -15.5114 26137.2   3373.3   7.3540 26354.0
 10 10 2016  18 43  -15.5113 26138.4   3373.7   7.3545 26355.3
 10 10 2016  18 44  -15.5117 26139.2   3373.3   7.3535 26355.9
 10 10 2016  18 45  -15.5121 26138.4   3371.8   7.3504 26355.0
 10 10 2016  18 46  -15.5128 26137.5   3370.6   7.3480 26353.9
 10 10 2016  18 47  -15.5120 26137.9   3372.3   7.3517 26354.6
 10 10 2016  18 48  -15.5115 26138.1   3372.1   7.3511 26354.8
 10 10 2016  18 49  -15.5113 26138.2   3372.0   7.3508 26354.8
 10 10 2016  18 50  -15.5111 26138.3   3373.1   7.3534 26355.0
 10 10 2016  18 51  -15.5116 26137.9   3372.5   7.3520 26354.6
 10 10 2016  18 52  -15.5110 26137.9   3371.3   7.3494 26354.4
 10 10 2016  18 53  -15.5116 26137.0   3372.3   7.3519 26353.7
 10 10 2016  18 54  -15.5121 26136.1   3371.7   7.3509 26352.7
 10 10 2016  18 55  -15.5112 26135.0   3371.2   7.3501 26351.6
 10 10 2016  18 56  -15.5114 26133.5   3372.2   7.3527 26350.2
 10 10 2016  18 57  -15.5123 26132.3   3371.7   7.3519 26348.9
 10 10 2016  18 58  -15.5115 26132.1   3372.7   7.3541 26348.9
 10 10 2016  18 59  -15.5117 26131.5   3372.2   7.3531 26348.2
 10 10 2016  19 00  -15.5100 26132.0   3373.2   7.3553 26348.8
 10 10 2016  19 01  -15.5082 26133.3   3375.8   7.3604 26350.5
 10 10 2016  19 02  -15.5068 26134.0   3376.3   7.3613 26351.2
 10 10 2016  19 03  -15.5094 26132.4   3374.7   7.3584 26349.4
 10 10 2016  19 04  -15.5107 26129.4   3373.1   7.3558 26346.3
 10 10 2016  19 05  -15.5105 26127.5   3373.8   7.3578 26344.4
 10 10 2016  19 06  -15.5097 26125.7   3373.0   7.3566 26342.5
 10 10 2016  19 07  -15.5090 26123.9   3373.8   7.3587 26340.9
 10 10 2016  19 08  -15.5093 26123.7   3374.6   7.3606 26340.8
 10 10 2016  19 09  -15.5092 26124.8   3375.8   7.3629 26342.0
 10 10 2016  19 10  -15.5098 26126.1   3376.8   7.3645 26343.4
 10 10 2016  19 11  -15.5103 26126.9   3376.9   7.3647 26344.2
 10 10 2016  19 12  -15.5117 26127.2   3376.3   7.3633 26344.4
 10 10 2016  19 13  -15.5127 26126.6   3375.1   7.3608 26343.7
 10 10 2016  19 14  -15.5140 26126.1   3374.1   7.3587 26343.1
 10 10 2016  19 15  -15.5131 26125.6   3375.9   7.3628 26342.8
 10 10 2016  19 16  -15.5136 26125.0   3375.3   7.3617 26342.1
 10 10 2016  19 17  -15.5134 26125.1   3376.1   7.3634 26342.4
 10 10 2016  19 18  -15.5137 26125.5   3375.2   7.3614 26342.6
 10 10 2016  19 19  -15.5147 26125.8   3374.0   7.3586 26342.8
 10 10 2016  19 20  -15.5146 26127.0   3375.7   7.3619 26344.2
 10 10 2016  19 21  -15.5157 26128.2   3375.7   7.3617 26345.4
 10 10 2016  19 22  -15.5160 26128.4   3376.8   7.3640 26345.7
 10 10 2016  19 23  -15.5168 26128.6   3375.9   7.3621 26345.8
 10 10 2016  19 24  -15.5177 26129.0   3373.7   7.3572 26345.9
 10 10 2016  19 25  -15.5176 26129.1   3374.0   7.3578 26346.0
 10 10 2016  19 26  -15.5185 26128.9   3375.2   7.3605 26346.0
 10 10 2016  19 27  -15.5175 26129.6   3374.8   7.3593 26346.7
 10 10 2016  19 28  -15.5179 26129.5   3375.0   7.3598 26346.6
 10 10 2016  19 29  -15.5189 26129.6   3373.9   7.3573 26346.5
 10 10 2016  19 30  -15.5194 26129.3   3374.6   7.3591 26346.3
 10 10 2016  19 31  -15.5196 26129.2   3374.5   7.3589 26346.2
 10 10 2016  19 32  -15.5206 26128.5   3373.4   7.3566 26345.4
 10 10 2016  19 33  -15.5203 26128.0   3373.4   7.3568 26344.9
 10 10 2016  19 34  -15.5191 26128.2   3374.3   7.3586 26345.2
 10 10 2016  19 35  -15.5193 26128.7   3374.5   7.3590 26345.8
 10 10 2016  19 36  -15.5192 26129.1   3374.1   7.3580 26346.0
 10 10 2016  19 37  -15.5199 26128.9   3374.3   7.3585 26345.9
 10 10 2016  19 38  -15.5201 26129.0   3373.2   7.3562 26345.8
 10 10 2016  19 39  -15.5200 26128.6   3373.8   7.3574 26345.6
 10 10 2016  19 40  -15.5195 26128.5   3375.0   7.3600 26345.6
 10 10 2016  19 41  -15.5198 26128.1   3374.2   7.3586 26345.1
 10 10 2016  19 42  -15.5203 26127.3   3374.2   7.3587 26344.3
 10 10 2016  19 43  -15.5220 26126.5   3372.3   7.3548 26343.2
 10 10 2016  19 44  -15.5223 26125.8   3371.8   7.3539 26342.4
 10 10 2016  19 45  -15.5226 26125.1   3371.5   7.3534 26341.8
 10 10 2016  19 46  -15.5222 26124.7   3372.0   7.3546 26341.4
 10 10 2016  19 47  -15.5219 26124.4   3374.1   7.3593 26341.4
 10 10 2016  19 48  -15.5212 26124.6   3375.7   7.3628 26341.8
 10 10 2016  19 49  -15.5212 26124.6   3374.5   7.3602 26341.6
 10 10 2016  19 50  -15.5224 26124.4   3374.4   7.3599 26341.5
 10 10 2016  19 51  -15.5223 26124.6   3374.6   7.3604 26341.7
 10 10 2016  19 52  -15.5222 26124.6   3375.2   7.3615 26341.7
 10 10 2016  19 53  -15.5225 26124.5   3375.8   7.3629 26341.8
 10 10 2016  19 54  -15.5223 26125.0   3375.5   7.3623 26342.1
 10 10 2016  19 55  -15.5228 26124.9   3375.7   7.3626 26342.1
 10 10 2016  19 56  -15.5227 26124.9   3376.3   7.3639 26342.2
 10 10 2016  19 57  -15.5233 26124.5   3375.6   7.3626 26341.7
 10 10 2016  19 58  -15.5235 26124.1   3376.1   7.3638 26341.3
 10 10 2016  19 59  -15.5238 26123.9   3376.5   7.3645 26341.2
 10 10 2016  20 00  -15.5234 26123.9   3376.1   7.3638 26341.2
 10 10 2016  20 01  -15.5243 26123.5   3376.8   7.3653 26340.9
 10 10 2016  20 02  -15.5246 26123.0   3376.7   7.3653 26340.4
 10 10 2016  20 03  -15.5246 26122.3   3376.2   7.3644 26339.5
 10 10 2016  20 04  -15.5249 26121.4   3376.5   7.3653 26338.7
 10 10 2016  20 05  -15.5247 26121.4   3376.3   7.3648 26338.7
 10 10 2016  20 06  -15.5233 26121.3   3378.7   7.3700 26338.9
 10 10 2016  20 07  -15.5233 26121.4   3378.3   7.3693 26339.0
 10 10 2016  20 08  -15.5234 26121.1   3378.8   7.3703 26338.7
 10 10 2016  20 09  -15.5240 26120.4   3379.0   7.3710 26338.1
 10 10 2016  20 10  -15.5239 26120.1   3379.4   7.3719 26337.8
 10 10 2016  20 11  -15.5233 26119.8   3381.3   7.3761 26337.8
 10 10 2016  20 12  -15.5241 26119.5   3379.9   7.3731 26337.3
 10 10 2016  20 13  -15.5235 26119.7   3379.3   7.3719 26337.4
 10 10 2016  20 14  -15.5226 26119.7   3380.9   7.3752 26337.6
 10 10 2016  20 15  -15.5219 26119.5   3382.9   7.3797 26337.7
 10 10 2016  20 16  -15.5217 26119.6   3382.4   7.3785 26337.7
 10 10 2016  20 17  -15.5221 26119.3   3382.2   7.3783 26337.4
 10 10 2016  20 18  -15.5213 26119.3   3382.6   7.3790 26337.4
 10 10 2016  20 19  -15.5208 26119.2   3383.0   7.3800 26337.4
 10 10 2016  20 20  -15.5208 26118.9   3383.6   7.3814 26337.2
 10 10 2016  20 21  -15.5210 26118.8   3384.1   7.3825 26337.1
 10 10 2016  20 22  -15.5202 26119.1   3383.7   7.3814 26337.3
 10 10 2016  20 23  -15.5205 26118.8   3383.8   7.3817 26337.1
 10 10 2016  20 24  -15.5198 26118.8   3384.2   7.3827 26337.2
 10 10 2016  20 25  -15.5200 26118.9   3384.2   7.3826 26337.2
 10 10 2016  20 26  -15.5197 26119.0   3385.1   7.3846 26337.4
 10 10 2016  20 27  -15.5189 26118.9   3384.9   7.3842 26337.3
 10 10 2016  20 28  -15.5197 26118.3   3384.6   7.3836 26336.7
 10 10 2016  20 29  -15.5196 26118.0   3384.4   7.3833 26336.4
 10 10 2016  20 30  -15.5194 26117.8   3384.9   7.3845 26336.2
 10 10 2016  20 31  -15.5193 26117.4   3384.9   7.3845 26335.8
 10 10 2016  20 32  -15.5183 26117.6   3385.8   7.3863 26336.2
 10 10 2016  20 33  -15.5180 26117.8   3386.5   7.3880 26336.4
 10 10 2016  20 34  -15.5185 26117.7   3386.2   7.3872 26336.3
 10 10 2016  20 35  -15.5185 26117.7   3385.9   7.3866 26336.2
 10 10 2016  20 36  -15.5185 26117.5   3386.6   7.3882 26336.1
 10 10 2016  20 37  -15.5184 26117.5   3386.6   7.3881 26336.2
 10 10 2016  20 38  -15.5187 26117.3   3386.8   7.3887 26336.0
 10 10 2016  20 39  -15.5180 26117.5   3388.0   7.3911 26336.3
 10 10 2016  20 40  -15.5181 26117.8   3386.3   7.3875 26336.4
 10 10 2016  20 41  -15.5185 26117.8   3387.3   7.3896 26336.5
 10 10 2016  20 42  -15.5190 26117.7   3387.8   7.3906 26336.5
 10 10 2016  20 43  -15.5185 26117.9   3388.3   7.3918 26336.7
 10 10 2016  20 44  -15.5187 26118.0   3388.2   7.3914 26336.9
 10 10 2016  20 45  -15.5185 26118.2   3388.7   7.3925 26337.1
 10 10 2016  20 46  -15.5186 26118.5   3388.5   7.3919 26337.4
 10 10 2016  20 47  -15.5183 26118.7   3389.2   7.3934 26337.7
 10 10 2016  20 48  -15.5182 26118.9   3389.4   7.3938 26337.9
 10 10 2016  20 49  -15.5180 26119.3   3389.7   7.3944 26338.4
 10 10 2016  20 50  -15.5180 26119.5   3389.7   7.3943 26338.6
 10 10 2016  20 51  -15.5179 26119.7   3390.2   7.3953 26338.8
 10 10 2016  20 52  -15.5178 26119.8   3390.2   7.3954 26338.9
 10 10 2016  20 53  -15.5176 26120.2   3390.5   7.3959 26339.3
 10 10 2016  20 54  -15.5174 26120.5   3390.7   7.3963 26339.6
 10 10 2016  20 55  -15.5171 26120.8   3391.1   7.3970 26340.0
 10 10 2016  20 56  -15.5167 26121.2   3391.3   7.3974 26340.5
 10 10 2016  20 57  -15.5165 26121.5   3391.5   7.3976 26340.7
 10 10 2016  20 58  -15.5163 26121.7   3391.7   7.3980 26341.0
 10 10 2016  20 59  -15.5162 26121.8   3391.6   7.3979 26341.1
 10 10 2016  21 00  -15.5160 26121.9   3391.9   7.3983 26341.2
 10 10 2016  21 01  -15.5160 26122.1   3392.0   7.3986 26341.4
 10 10 2016  21 02  -15.5160 26122.3   3391.5   7.3974 26341.5
 10 10 2016  21 03  -15.5154 26122.6   3391.7   7.3979 26341.9
 10 10 2016  21 04  -15.5162 26122.5   3392.5   7.3995 26341.9
 10 10 2016  21 05  -15.5149 26123.2   3392.2   7.3986 26342.5
 10 10 2016  21 06  -15.5150 26123.4   3393.0   7.4003 26342.9
 10 10 2016  21 07  -15.5145 26123.8   3393.1   7.4005 26343.2
 10 10 2016  21 08  -15.5146 26124.0   3393.1   7.4003 26343.4
 10 10 2016  21 09  -15.5144 26124.0   3393.8   7.4019 26343.6
 10 10 2016  21 10  -15.5148 26124.2   3392.9   7.4000 26343.6
 10 10 2016  21 11  -15.5146 26124.3   3393.5   7.4011 26343.8
 10 10 2016  21 12  -15.5145 26124.6   3393.7   7.4015 26344.1
 10 10 2016  21 13  -15.5144 26124.8   3393.6   7.4013 26344.3
 10 10 2016  21 14  -15.5137 26125.3   3394.4   7.4028 26344.8
 10 10 2016  21 15  -15.5143 26125.4   3394.7   7.4034 26345.0
 10 10 2016  21 16  -15.5136 26125.8   3394.4   7.4028 26345.4
 10 10 2016  21 17  -15.5137 26125.9   3395.3   7.4046 26345.6
 10 10 2016  21 18  -15.5134 26126.3   3394.6   7.4029 26345.9
 10 10 2016  21 19  -15.5139 26126.2   3394.7   7.4032 26345.8
 10 10 2016  21 20  -15.5128 26126.6   3394.4   7.4026 26346.2
 10 10 2016  21 21  -15.5134 26126.1   3396.3   7.4068 26346.0
 10 10 2016  21 22  -15.5128 26126.5   3395.2   7.4043 26346.1
 10 10 2016  21 23  -15.5133 26126.3   3394.5   7.4028 26345.9
 10 10 2016  21 24  -15.5135 26126.1   3394.9   7.4037 26345.8
 10 10 2016  21 25  -15.5134 26126.0   3395.5   7.4051 26345.7
 10 10 2016  21 26  -15.5127 26126.3   3395.8   7.4055 26346.1
 10 10 2016  21 27  -15.5119 26126.7   3396.4   7.4068 26346.5
 10 10 2016  21 28  -15.5124 26126.8   3394.8   7.4033 26346.4
 10 10 2016  21 29  -15.5133 26126.6   3395.5   7.4047 26346.4
 10 10 2016  21 30  -15.5130 26126.9   3395.1   7.4040 26346.6
 10 10 2016  21 31  -15.5129 26127.0   3395.7   7.4052 26346.8
 10 10 2016  21 32  -15.5112 26127.3   3397.2   7.4083 26347.3
 10 10 2016  21 33  -15.5117 26127.6   3395.7   7.4051 26347.3
 10 10 2016  21 34  -15.5111 26127.8   3396.6   7.4069 26347.7
 10 10 2016  21 35  -15.5115 26127.7   3397.7   7.4092 26347.7
 10 10 2016  21 36  -15.5116 26127.9   3397.0   7.4077 26347.8
 10 10 2016  21 37  -15.5116 26127.9   3396.3   7.4063 26347.7
 10 10 2016  21 38  -15.5109 26128.1   3396.7   7.4070 26347.9
 10 10 2016  21 39  -15.5106 26128.3   3397.0   7.4075 26348.2
 10 10 2016  21 40  -15.5107 26128.3   3397.8   7.4093 26348.3
 10 10 2016  21 41  -15.5105 26128.4   3398.5   7.4108 26348.5
 10 10 2016  21 42  -15.5105 26128.7   3397.4   7.4084 26348.6
 10 10 2016  21 43  -15.5107 26128.4   3398.6   7.4109 26348.5
 10 10 2016  21 44  -15.5105 26128.6   3397.7   7.4090 26348.6
 10 10 2016  21 45  -15.5103 26128.7   3398.3   7.4103 26348.8
 10 10 2016  21 46  -15.5106 26128.7   3397.5   7.4085 26348.6
 10 10 2016  21 47  -15.5099 26128.8   3399.4   7.4126 26349.0
 10 10 2016  21 48  -15.5092 26129.1   3399.5   7.4128 26349.3
 10 10 2016  21 49  -15.5099 26129.3   3398.0   7.4096 26349.3
 10 10 2016  21 50  -15.5089 26129.5   3399.9   7.4135 26349.8
 10 10 2016  21 51  -15.5088 26129.6   3400.0   7.4137 26349.9
 10 10 2016  21 52  -15.5092 26129.9   3398.8   7.4110 26350.0
 10 10 2016  21 53  -15.5084 26130.0   3399.8   7.4132 26350.2
 10 10 2016  21 54  -15.5083 26130.0   3401.1   7.4159 26350.4
 10 10 2016  21 55  -15.5088 26130.3   3399.3   7.4120 26350.5
 10 10 2016  21 56  -15.5081 26130.2   3400.2   7.4139 26350.5
 10 10 2016  21 57  -15.5078 26130.3   3398.9   7.4111 26350.5
 10 10 2016  21 58  -15.5085 26129.8   3400.5   7.4146 26350.2
 10 10 2016  21 59  -15.5081 26130.1   3399.7   7.4129 26350.3
 10 10 2016  22 00  -15.5086 26129.9   3400.2   7.4141 26350.2
 10 10 2016  22 01  -15.5090 26130.0   3399.4   7.4123 26350.2
 10 10 2016  22 02  -15.5082 26130.1   3401.0   7.4158 26350.5
 10 10 2016  22 03  -15.5088 26130.2   3400.7   7.4151 26350.5
 10 10 2016  22 04  -15.5088 26130.5   3399.6   7.4126 26350.7
 10 10 2016  22 05  -15.5088 26130.3   3400.9   7.4155 26350.7
 10 10 2016  22 06  -15.5073 26130.8   3402.0   7.4177 26351.3
 10 10 2016  22 07  -15.5082 26130.9   3400.3   7.4140 26351.2
 10 10 2016  22 08  -15.5085 26131.0   3401.6   7.4168 26351.4
 10 10 2016  22 09  -15.5067 26131.6   3401.3   7.4160 26352.0
 10 10 2016  22 10  -15.5076 26131.5   3400.6   7.4144 26351.9
 10 10 2016  22 11  -15.5066 26131.8   3401.2   7.4157 26352.2
 10 10 2016  22 12  -15.5070 26131.5   3402.0   7.4174 26352.0
 10 10 2016  22 13  -15.5090 26131.3   3399.8   7.4128 26351.5
 10 10 2016  22 14  -15.5081 26131.3   3402.0   7.4175 26351.8
 10 10 2016  22 15  -15.5074 26131.4   3402.0   7.4175 26351.9
 10 10 2016  22 16  -15.5084 26131.3   3400.7   7.4148 26351.6
 10 10 2016  22 17  -15.5085 26131.3   3399.6   7.4124 26351.5
 10 10 2016  22 18  -15.5084 26131.1   3401.2   7.4159 26351.5
 10 10 2016  22 19  -15.5080 26131.3   3400.4   7.4141 26351.6
 10 10 2016  22 20  -15.5087 26131.0   3400.2   7.4137 26351.3
 10 10 2016  22 21  -15.5088 26131.0   3401.1   7.4158 26351.4
 10 10 2016  22 22  -15.5088 26131.1   3401.4   7.4163 26351.5
 10 10 2016  22 23  -15.5087 26131.3   3401.1   7.4156 26351.7
 10 10 2016  22 24  -15.5081 26131.7   3402.0   7.4175 26352.2
 10 10 2016  22 25  -15.5074 26132.1   3401.5   7.4163 26352.6
 10 10 2016  22 26  -15.5076 26131.9   3402.0   7.4174 26352.5
 10 10 2016  22 27  -15.5090 26131.9   3399.9   7.4128 26352.1
 10 10 2016  22 28  -15.5074 26132.1   3401.7   7.4168 26352.5
 10 10 2016  22 29  -15.5079 26132.1   3401.2   7.4157 26352.5
 10 10 2016  22 30  -15.5075 26132.0   3402.0   7.4174 26352.5
 10 10 2016  22 31  -15.5069 26131.8   3402.7   7.4188 26352.4
 10 10 2016  22 32  -15.5068 26131.8   3401.5   7.4164 26352.2
 10 10 2016  22 33  -15.5072 26131.4   3401.0   7.4154 26351.8
 10 10 2016  22 34  -15.5083 26130.8   3401.7   7.4170 26351.3
 10 10 2016  22 35  -15.5078 26130.9   3400.2   7.4138 26351.2
 10 10 2016  22 36  -15.5078 26130.6   3400.2   7.4139 26350.9
 10 10 2016  22 37  -15.5080 26130.5   3401.2   7.4161 26350.9
 10 10 2016  22 38  -15.5081 26131.2   3400.6   7.4144 26351.6
 10 10 2016  22 39  -15.5076 26131.7   3401.8   7.4171 26352.2
 10 10 2016  22 40  -15.5062 26132.5   3403.9   7.4214 26353.2
 10 10 2016  22 41  -15.5056 26133.2   3403.3   7.4199 26353.9
 10 10 2016  22 42  -15.5059 26133.9   3403.8   7.4207 26354.6
 10 10 2016  22 43  -15.5065 26134.4   3403.2   7.4192 26355.0
 10 10 2016  22 44  -15.5054 26135.1   3403.0   7.4186 26355.7
 10 10 2016  22 45  -15.5053 26135.1   3404.1   7.4211 26355.9
 10 10 2016  22 46  -15.5058 26134.8   3403.5   7.4198 26355.5
 10 10 2016  22 47  -15.5071 26134.3   3402.2   7.4172 26354.8
 10 10 2016  22 48  -15.5070 26133.9   3401.7   7.4161 26354.4
 10 10 2016  22 49  -15.5071 26133.2   3401.6   7.4162 26353.7
 10 10 2016  22 50  -15.5073 26132.8   3400.6   7.4140 26353.2
 10 10 2016  22 51  -15.5075 26132.3   3400.9   7.4148 26352.7
 10 10 2016  22 52  -15.5081 26131.6   3401.2   7.4156 26352.1
 10 10 2016  22 53  -15.5075 26131.7   3401.1   7.4154 26352.1
 10 10 2016  22 54  -15.5064 26131.9   3402.0   7.4173 26352.4
 10 10 2016  22 55  -15.5066 26131.8   3402.1   7.4176 26352.3
 10 10 2016  22 56  -15.5069 26131.6   3401.8   7.4170 26352.1
 10 10 2016  22 57  -15.5069 26131.4   3400.9   7.4151 26351.8
 10 10 2016  22 58  -15.5066 26131.3   3401.9   7.4174 26351.8
 10 10 2016  22 59  -15.5069 26131.0   3401.6   7.4167 26351.5
 10 10 2016  23 00  -15.5078 26130.5   3401.2   7.4161 26350.9
 10 10 2016  23 01  -15.5076 26130.3   3401.1   7.4160 26350.8
 10 10 2016  23 02  -15.5072 26130.3   3402.0   7.4179 26350.8
 10 10 2016  23 03  -15.5071 26130.5   3401.3   7.4164 26351.0
 10 10 2016  23 04  -15.5069 26130.6   3401.1   7.4157 26351.0
 10 10 2016  23 05  -15.5062 26130.6   3403.4   7.4207 26351.3
 10 10 2016  23 06  -15.5055 26131.0   3402.9   7.4196 26351.6
 10 10 2016  23 07  -15.5063 26130.9   3403.0   7.4198 26351.6
 10 10 2016  23 08  -15.5070 26131.1   3403.1   7.4199 26351.7
 10 10 2016  23 09  -15.5078 26131.2   3402.1   7.4178 26351.7
 10 10 2016  23 10  -15.5073 26131.5   3402.1   7.4177 26352.0
 10 10 2016  23 11  -15.5057 26132.1   3402.5   7.4183 26352.7
 10 10 2016  23 12  -15.5061 26132.6   3402.6   7.4185 26353.2
 10 10 2016  23 13  -15.5064 26133.2   3402.5   7.4181 26353.8
 10 10 2016  23 14  -15.5042 26133.7   3403.9   7.4210 26354.4
 10 10 2016  23 15  -15.5057 26133.4   3402.6   7.4183 26354.0
 10 10 2016  23 16  -15.5045 26133.5   3403.4   7.4199 26354.2
 10 10 2016  23 17  -15.5059 26133.0   3402.9   7.4190 26353.6
 10 10 2016  23 18  -15.5067 26132.8   3402.2   7.4175 26353.3
 10 10 2016  23 19  -15.5061 26132.8   3402.1   7.4173 26353.3
 10 10 2016  23 20  -15.5057 26132.5   3403.3   7.4200 26353.2
 10 10 2016  23 21  -15.5059 26132.6   3401.3   7.4158 26353.0
 10 10 2016  23 22  -15.5048 26132.7   3401.4   7.4158 26353.2
 10 10 2016  23 23  -15.5057 26132.3   3402.3   7.4180 26352.8
 10 10 2016  23 24  -15.5046 26132.6   3401.0   7.4149 26353.0
 10 10 2016  23 25  -15.5050 26132.5   3400.9   7.4149 26352.9
 10 10 2016  23 26  -15.5051 26132.3   3401.1   7.4153 26352.7
 10 10 2016  23 27  -15.5048 26132.2   3401.4   7.4160 26352.6
 10 10 2016  23 28  -15.5046 26132.3   3401.2   7.4155 26352.7
 10 10 2016  23 29  -15.5044 26132.2   3402.1   7.4176 26352.7
 10 10 2016  23 30  -15.5043 26132.3   3401.8   7.4169 26352.8
 10 10 2016  23 31  -15.5042 26132.2   3402.0   7.4172 26352.7
 10 10 2016  23 32  -15.5042 26132.2   3401.9   7.4171 26352.7
 10 10 2016  23 33  -15.5038 26132.3   3402.2   7.4176 26352.8
 10 10 2016  23 34  -15.5035 26132.5   3402.7   7.4186 26353.1
 10 10 2016  23 35  -15.5047 26132.6   3402.7   7.4187 26353.2
 10 10 2016  23 36  -15.5035 26133.2   3401.9   7.4168 26353.7
 10 10 2016  23 37  -15.5038 26133.3   3401.3   7.4154 26353.7
 10 10 2016  23 38  -15.5040 26133.1   3402.2   7.4175 26353.6
 10 10 2016  23 39  -15.5031 26132.9   3403.4   7.4201 26353.6
 10 10 2016  23 40  -15.5045 26132.6   3401.4   7.4158 26353.0
 10 10 2016  23 41  -15.5044 26132.6   3401.1   7.4152 26352.9
 10 10 2016  23 42  -15.5042 26132.6   3401.2   7.4155 26353.0
 10 10 2016  23 43  -15.5044 26132.6   3400.6   7.4142 26352.9
 10 10 2016  23 44  -15.5058 26132.2   3401.2   7.4156 26352.6
 10 10 2016  23 45  -15.5051 26132.3   3401.5   7.4162 26352.7
 10 10 2016  23 46  -15.5044 26132.4   3402.0   7.4172 26352.9
 10 10 2016  23 47  -15.5042 26132.5   3401.0   7.4150 26352.8
 10 10 2016  23 48  -15.5043 26132.3   3401.1   7.4154 26352.7
 10 10 2016  23 49  -15.5040 26132.3   3401.3   7.4158 26352.8
 10 10 2016  23 50  -15.5030 26132.6   3401.7   7.4165 26353.1
 10 10 2016  23 51  -15.5038 26132.3   3402.2   7.4176 26352.8
 10 10 2016  23 52  -15.5037 26132.6   3401.8   7.4167 26353.1
 10 10 2016  23 53  -15.5048 26132.6   3401.3   7.4157 26353.0
 10 10 2016  23 54  -15.5029 26133.2   3401.7   7.4163 26353.7
 10 10 2016  23 55  -15.5037 26132.9   3401.8   7.4166 26353.4
 10 10 2016  23 56  -15.5036 26133.0   3401.8   7.4166 26353.4
 10 10 2016  23 57  -15.5038 26132.8   3402.5   7.4183 26353.4
 10 10 2016  23 58  -15.5039 26132.9   3401.9   7.4170 26353.4
 10 10 2016  23 59  -15.5049 26132.7   3401.7   7.4164 26353.2
