Manaus - AM                    UNIVAP-03  <287> 1 Min. Reported data

 DD MM YYYY  HH MM   D(Deg)  H(nT)   Z(nT)   I(Deg)   F(nT)

 13 10 2016  00 01  -15.4900 26151.9   3399.6   7.4066 26371.9
 13 10 2016  00 02  -15.4892 26151.6   3399.2   7.4058 26371.6
 13 10 2016  00 03  -15.4891 26151.0   3399.6   7.4069 26371.0
 13 10 2016  00 04  -15.4892 26151.0   3399.6   7.4068 26371.1
 13 10 2016  00 05  -15.4887 26151.5   3400.2   7.4079 26371.6
 13 10 2016  00 06  -15.4884 26151.8   3400.2   7.4079 26371.9
 13 10 2016  00 07  -15.4886 26151.8   3400.2   7.4080 26371.9
 13 10 2016  00 08  -15.4888 26151.4   3399.6   7.4068 26371.4
 13 10 2016  00 09  -15.4888 26150.6   3399.6   7.4070 26370.7
 13 10 2016  00 10  -15.4893 26150.5   3399.5   7.4067 26370.5
 13 10 2016  00 11  -15.4889 26150.8   3399.9   7.4075 26370.9
 13 10 2016  00 12  -15.4891 26151.3   3400.1   7.4079 26371.4
 13 10 2016  00 13  -15.4891 26151.9   3400.4   7.4083 26372.0
 13 10 2016  00 14  -15.4893 26151.9   3400.7   7.4091 26372.1
 13 10 2016  00 15  -15.4898 26151.3   3400.2   7.4080 26371.4
 13 10 2016  00 16  -15.4902 26150.8   3399.8   7.4073 26370.9
 13 10 2016  00 17  -15.4901 26150.8   3400.1   7.4080 26371.0
 13 10 2016  00 18  -15.4899 26151.2   3400.3   7.4084 26371.3
 13 10 2016  00 19  -15.4902 26151.3   3400.0   7.4076 26371.4
 13 10 2016  00 20  -15.4908 26150.7   3400.3   7.4084 26370.8
 13 10 2016  00 21  -15.4918 26150.0   3399.4   7.4068 26370.0
 13 10 2016  00 22  -15.4923 26149.8   3400.0   7.4080 26369.9
 13 10 2016  00 23  -15.4929 26149.6   3399.2   7.4065 26369.6
 13 10 2016  00 24  -15.4928 26149.5   3399.7   7.4075 26369.6
 13 10 2016  00 26  -15.4937 26148.5   3399.4   7.4071 26368.5
 13 10 2016  00 27  -15.4939 26148.1   3399.4   7.4072 26368.1
 13 10 2016  00 28  -15.4939 26147.2   3398.5   7.4055 26367.1
 13 10 2016  00 29  -15.4952 26146.1   3398.4   7.4056 26366.0
 13 10 2016  00 30  -15.4940 26146.4   3399.2   7.4072 26366.4
 13 10 2016  00 31  -15.4945 26145.8   3399.3   7.4077 26365.8
 13 10 2016  00 32  -15.4944 26144.9   3398.1   7.4054 26364.8
 13 10 2016  00 33  -15.4951 26143.9   3399.1   7.4078 26364.0
 13 10 2016  00 34  -15.4951 26143.8   3399.3   7.4081 26363.9
 13 10 2016  00 35  -15.4945 26143.1   3398.9   7.4075 26363.2
 13 10 2016  00 36  -15.4957 26141.3   3398.1   7.4064 26361.2
 13 10 2016  00 37  -15.4977 26138.5   3396.8   7.4043 26358.2
 13 10 2016  00 38  -15.4976 26137.1   3396.5   7.4041 26356.9
 13 10 2016  00 39  -15.4981 26136.5   3397.2   7.4057 26356.4
 13 10 2016  00 40  -15.4977 26136.4   3397.5   7.4065 26356.3
 13 10 2016  00 41  -15.4967 26136.3   3399.0   7.4097 26356.4
 13 10 2016  00 42  -15.4964 26136.5   3399.2   7.4101 26356.6
 13 10 2016  00 43  -15.4958 26136.9   3399.7   7.4111 26357.1
 13 10 2016  00 44  -15.4953 26137.3   3400.5   7.4126 26357.6
 13 10 2016  00 45  -15.4946 26138.0   3400.7   7.4128 26358.3
 13 10 2016  00 46  -15.4942 26138.5   3400.6   7.4126 26358.8
 13 10 2016  00 47  -15.4935 26138.9   3400.8   7.4129 26359.2
 13 10 2016  00 48  -15.4932 26139.1   3400.9   7.4129 26359.4
 13 10 2016  00 49  -15.4921 26139.1   3401.3   7.4138 26359.5
 13 10 2016  00 50  -15.4928 26138.6   3400.7   7.4128 26358.9
 13 10 2016  00 51  -15.4921 26138.4   3400.6   7.4124 26358.7
 13 10 2016  00 52  -15.4924 26138.1   3401.8   7.4152 26358.5
 13 10 2016  00 53  -15.4921 26138.2   3401.1   7.4136 26358.5
 13 10 2016  00 54  -15.4930 26137.8   3400.7   7.4128 26358.1
 13 10 2016  00 55  -15.4931 26137.9   3400.8   7.4131 26358.2
 13 10 2016  00 56  -15.4923 26138.4   3401.0   7.4134 26358.8
 13 10 2016  00 57  -15.4918 26138.6   3401.4   7.4142 26358.9
 13 10 2016  00 58  -15.4912 26138.8   3401.5   7.4143 26359.2
 13 10 2016  00 59  -15.4907 26139.2   3401.7   7.4148 26359.6
 13 10 2016  01 00  -15.4899 26139.5   3401.7   7.4146 26359.9
 13 10 2016  01 01  -15.4899 26139.6   3401.7   7.4145 26360.0
 13 10 2016  01 02  -15.4901 26139.8   3401.8   7.4148 26360.2
 13 10 2016  01 03  -15.4900 26140.0   3401.6   7.4143 26360.4
 13 10 2016  01 04  -15.4898 26140.2   3401.9   7.4149 26360.6
 13 10 2016  01 05  -15.4902 26140.3   3401.6   7.4142 26360.7
 13 10 2016  01 06  -15.4905 26140.4   3401.5   7.4138 26360.8
 13 10 2016  01 07  -15.4905 26140.5   3401.9   7.4147 26361.0
 13 10 2016  01 08  -15.4911 26140.5   3401.6   7.4141 26360.9
 13 10 2016  01 09  -15.4900 26140.7   3401.2   7.4131 26361.1
 13 10 2016  01 10  -15.4920 26140.4   3401.7   7.4144 26360.8
 13 10 2016  01 11  -15.4919 26140.2   3402.7   7.4166 26360.8
 13 10 2016  01 12  -15.4919 26140.3   3402.8   7.4168 26360.9
 13 10 2016  01 13  -15.4924 26140.3   3402.5   7.4162 26360.8
 13 10 2016  01 14  -15.4920 26140.6   3400.9   7.4125 26360.9
 13 10 2016  01 15  -15.4909 26141.0   3400.6   7.4119 26361.3
 13 10 2016  01 16  -15.4899 26141.1   3401.4   7.4136 26361.4
 13 10 2016  01 17  -15.4905 26140.6   3402.7   7.4165 26361.1
 13 10 2016  01 18  -15.4915 26140.6   3402.1   7.4151 26361.0
 13 10 2016  01 19  -15.4905 26140.8   3402.4   7.4158 26361.3
 13 10 2016  01 20  -15.4913 26140.8   3401.6   7.4140 26361.2
 13 10 2016  01 21  -15.4914 26140.8   3400.8   7.4123 26361.0
 13 10 2016  01 22  -15.4905 26140.8   3401.9   7.4146 26361.2
 13 10 2016  01 23  -15.4909 26140.7   3401.7   7.4143 26361.1
 13 10 2016  01 24  -15.4903 26140.9   3402.4   7.4157 26361.3
 13 10 2016  01 25  -15.4906 26140.7   3402.9   7.4168 26361.3
 13 10 2016  01 26  -15.4917 26140.2   3401.1   7.4131 26360.5
 13 10 2016  01 27  -15.4914 26140.4   3400.9   7.4127 26360.7
 13 10 2016  01 28  -15.4915 26140.4   3401.0   7.4128 26360.7
 13 10 2016  01 29  -15.4915 26140.4   3401.7   7.4143 26360.8
 13 10 2016  01 30  -15.4911 26140.6   3402.1   7.4152 26361.0
 13 10 2016  01 31  -15.4902 26141.1   3402.5   7.4158 26361.6
 13 10 2016  01 32  -15.4904 26141.2   3402.8   7.4164 26361.8
 13 10 2016  01 33  -15.4896 26141.4   3402.2   7.4151 26361.9
 13 10 2016  01 34  -15.4903 26141.4   3403.3   7.4176 26362.0
 13 10 2016  01 35  -15.4891 26142.0   3402.5   7.4155 26362.5
 13 10 2016  01 36  -15.4895 26141.8   3401.9   7.4145 26362.3
 13 10 2016  01 37  -15.4891 26141.5   3401.8   7.4143 26361.9
 13 10 2016  01 38  -15.4895 26141.3   3401.0   7.4126 26361.6
 13 10 2016  01 39  -15.4898 26141.0   3401.7   7.4142 26361.5
 13 10 2016  01 40  -15.4903 26140.6   3402.2   7.4153 26361.1
 13 10 2016  01 41  -15.4900 26140.5   3401.2   7.4131 26360.9
 13 10 2016  01 42  -15.4903 26140.4   3401.9   7.4148 26360.8
 13 10 2016  01 43  -15.4904 26140.8   3402.8   7.4166 26361.3
 13 10 2016  01 44  -15.4895 26141.7   3402.8   7.4164 26362.3
 13 10 2016  01 45  -15.4894 26142.8   3402.6   7.4157 26363.3
 13 10 2016  01 46  -15.4886 26143.3   3403.7   7.4178 26363.9
 13 10 2016  01 47  -15.4891 26143.3   3403.0   7.4163 26363.9
 13 10 2016  01 48  -15.4880 26143.8   3402.2   7.4145 26364.3
 13 10 2016  01 49  -15.4882 26143.9   3403.9   7.4180 26364.6
 13 10 2016  01 50  -15.4886 26143.8   3403.0   7.4161 26364.3
 13 10 2016  01 51  -15.4894 26142.3   3401.9   7.4143 26362.7
 13 10 2016  01 52  -15.4903 26140.8   3400.8   7.4122 26361.1
 13 10 2016  01 53  -15.4901 26140.7   3401.0   7.4128 26361.0
 13 10 2016  01 54  -15.4898 26141.8   3401.1   7.4126 26362.1
 13 10 2016  01 55  -15.4878 26144.3   3403.7   7.4175 26364.9
 13 10 2016  01 56  -15.4871 26146.6   3404.9   7.4196 26367.4
 13 10 2016  01 57  -15.4857 26148.4   3405.5   7.4204 26369.2
 13 10 2016  01 58  -15.4851 26150.4   3405.8   7.4203 26371.3
 13 10 2016  01 59  -15.4847 26152.6   3405.6   7.4193 26373.5
 13 10 2016  02 00  -15.4842 26154.2   3406.4   7.4206 26375.1
 13 10 2016  02 01  -15.4837 26155.1   3406.2   7.4199 26375.9
 13 10 2016  02 02  -15.4836 26155.8   3405.7   7.4186 26376.6
 13 10 2016  02 03  -15.4842 26155.3   3404.4   7.4159 26375.9
 13 10 2016  02 04  -15.4850 26152.8   3404.0   7.4158 26373.4
 13 10 2016  02 05  -15.4851 26151.7   3402.9   7.4137 26372.1
 13 10 2016  02 06  -15.4855 26152.1   3402.1   7.4119 26372.4
 13 10 2016  02 07  -15.4855 26152.8   3403.1   7.4139 26373.3
 13 10 2016  02 08  -15.4856 26153.4   3403.3   7.4141 26373.9
 13 10 2016  02 09  -15.4862 26153.2   3401.9   7.4111 26373.5
 13 10 2016  02 10  -15.4868 26152.2   3401.9   7.4115 26372.5
 13 10 2016  02 11  -15.4871 26151.2   3401.4   7.4107 26371.5
 13 10 2016  02 12  -15.4875 26149.7   3400.5   7.4092 26369.9
 13 10 2016  02 13  -15.4886 26148.1   3400.4   7.4093 26368.2
 13 10 2016  02 14  -15.4882 26147.4   3400.1   7.4089 26367.5
 13 10 2016  02 15  -15.4889 26146.9   3399.7   7.4082 26367.0
 13 10 2016  02 16  -15.4888 26146.4   3400.7   7.4105 26366.7
 13 10 2016  02 17  -15.4880 26147.0   3401.0   7.4110 26367.3
 13 10 2016  02 18  -15.4890 26147.4   3401.0   7.4108 26367.7
 13 10 2016  02 19  -15.4891 26147.6   3400.6   7.4099 26367.8
 13 10 2016  02 20  -15.4898 26147.5   3399.7   7.4080 26367.6
 13 10 2016  02 21  -15.4902 26147.4   3400.3   7.4094 26367.6
 13 10 2016  02 22  -15.4892 26147.4   3401.1   7.4110 26367.6
 13 10 2016  02 23  -15.4896 26147.0   3400.7   7.4102 26367.2
 13 10 2016  02 24  -15.4893 26146.8   3401.2   7.4114 26367.1
 13 10 2016  02 25  -15.4891 26146.6   3400.8   7.4106 26366.8
 13 10 2016  02 26  -15.4890 26146.3   3400.9   7.4110 26366.6
 13 10 2016  02 27  -15.4894 26146.2   3400.4   7.4100 26366.4
 13 10 2016  02 28  -15.4898 26145.9   3400.2   7.4097 26366.1
 13 10 2016  02 29  -15.4896 26145.6   3400.5   7.4103 26365.8
 13 10 2016  02 30  -15.4886 26146.6   3400.3   7.4096 26366.8
 13 10 2016  02 31  -15.4887 26147.9   3402.2   7.4133 26368.3
 13 10 2016  02 32  -15.4892 26148.7   3402.0   7.4126 26369.0
 13 10 2016  02 33  -15.4890 26148.1   3402.0   7.4129 26368.5
 13 10 2016  02 34  -15.4892 26146.3   3399.1   7.4070 26366.3
 13 10 2016  02 35  -15.4890 26144.4   3399.7   7.4089 26364.5
 13 10 2016  02 36  -15.4910 26142.7   3398.5   7.4068 26362.6
 13 10 2016  02 37  -15.4910 26142.0   3400.2   7.4106 26362.2
 13 10 2016  02 38  -15.4911 26142.6   3399.6   7.4093 26362.8
 13 10 2016  02 39  -15.4913 26143.3   3399.7   7.4091 26363.5
 13 10 2016  02 40  -15.4912 26143.3   3400.6   7.4111 26363.6
 13 10 2016  02 41  -15.4928 26143.0   3400.0   7.4100 26363.1
 13 10 2016  02 42  -15.4917 26142.7   3400.4   7.4109 26362.9
 13 10 2016  02 43  -15.4925 26141.9   3399.6   7.4094 26362.0
 13 10 2016  02 44  -15.4919 26141.9   3400.4   7.4110 26362.1
 13 10 2016  02 45  -15.4916 26142.5   3400.4   7.4109 26362.7
 13 10 2016  02 46  -15.4917 26142.5   3400.4   7.4111 26362.7
 13 10 2016  02 47  -15.4928 26140.8   3399.2   7.4088 26360.9
 13 10 2016  02 48  -15.4938 26138.3   3398.0   7.4068 26358.3
 13 10 2016  02 49  -15.4942 26137.5   3398.0   7.4072 26357.4
 13 10 2016  02 50  -15.4940 26137.8   3398.9   7.4091 26357.8
 13 10 2016  02 51  -15.4940 26138.3   3399.3   7.4098 26358.4
 13 10 2016  02 52  -15.4937 26139.1   3400.4   7.4119 26359.4
 13 10 2016  02 53  -15.4926 26141.0   3401.5   7.4137 26361.3
 13 10 2016  02 54  -15.4916 26143.6   3402.4   7.4150 26364.0
 13 10 2016  02 55  -15.4914 26144.5   3403.1   7.4162 26365.0
 13 10 2016  02 56  -15.4911 26143.9   3402.1   7.4143 26364.3
 13 10 2016  02 57  -15.4912 26143.3   3401.0   7.4119 26363.6
 13 10 2016  02 58  -15.4901 26143.5   3401.2   7.4124 26363.9
 13 10 2016  02 59  -15.4904 26143.3   3401.5   7.4131 26363.7
 13 10 2016  03 00  -15.4919 26143.1   3399.4   7.4086 26363.2
 13 10 2016  03 01  -15.4913 26142.8   3400.3   7.4107 26363.0
 13 10 2016  03 02  -15.4912 26142.9   3399.5   7.4088 26363.0
 13 10 2016  03 03  -15.4918 26142.7   3399.8   7.4097 26362.8
 13 10 2016  03 04  -15.4909 26142.7   3400.4   7.4108 26362.9
 13 10 2016  03 05  -15.4919 26142.3   3400.5   7.4111 26362.6
 13 10 2016  03 06  -15.4916 26142.3   3400.3   7.4109 26362.5
 13 10 2016  03 07  -15.4924 26142.3   3399.2   7.4085 26362.4
 13 10 2016  03 08  -15.4942 26141.4   3399.2   7.4086 26361.5
 13 10 2016  03 09  -15.4946 26140.3   3399.6   7.4099 26360.4
 13 10 2016  03 10  -15.4953 26140.4   3399.4   7.4094 26360.5
 13 10 2016  03 11  -15.4937 26140.1   3400.7   7.4123 26360.4
 13 10 2016  03 12  -15.4950 26139.6   3399.4   7.4096 26359.7
 13 10 2016  03 13  -15.4951 26138.9   3400.8   7.4129 26359.2
 13 10 2016  03 14  -15.4955 26138.2   3400.5   7.4124 26358.4
 13 10 2016  03 15  -15.4955 26138.4   3399.2   7.4096 26358.5
 13 10 2016  03 16  -15.4961 26137.8   3398.7   7.4086 26357.9
 13 10 2016  03 17  -15.4959 26137.3   3398.9   7.4092 26357.3
 13 10 2016  03 18  -15.4965 26137.3   3398.9   7.4093 26357.4
 13 10 2016  03 19  -15.4948 26138.1   3400.5   7.4123 26358.4
 13 10 2016  03 20  -15.4959 26137.5   3401.6   7.4149 26357.9
 13 10 2016  03 21  -15.4956 26138.6   3400.0   7.4113 26358.8
 13 10 2016  03 22  -15.4965 26138.6   3399.3   7.4097 26358.7
 13 10 2016  03 23  -15.4965 26139.6   3400.6   7.4121 26359.9
 13 10 2016  03 24  -15.4952 26140.1   3401.1   7.4132 26360.4
 13 10 2016  03 25  -15.4962 26140.2   3402.7   7.4164 26360.8
 13 10 2016  03 26  -15.4952 26141.5   3402.4   7.4156 26362.0
 13 10 2016  03 27  -15.4964 26141.1   3401.2   7.4131 26361.5
 13 10 2016  03 28  -15.4968 26140.3   3401.1   7.4130 26360.6
 13 10 2016  03 29  -15.4976 26138.8   3399.7   7.4105 26359.0
 13 10 2016  03 30  -15.4989 26138.0   3399.8   7.4110 26358.1
 13 10 2016  03 31  -15.4992 26137.1   3399.1   7.4097 26357.2
 13 10 2016  03 32  -15.4994 26136.9   3399.8   7.4111 26357.1
 13 10 2016  03 33  -15.4991 26136.8   3400.7   7.4132 26357.1
 13 10 2016  03 34  -15.4992 26137.0   3400.1   7.4119 26357.2
 13 10 2016  03 35  -15.4986 26137.2   3401.3   7.4144 26357.6
 13 10 2016  03 36  -15.4980 26137.1   3399.9   7.4113 26357.3
 13 10 2016  03 37  -15.4994 26135.8   3400.1   7.4122 26356.1
 13 10 2016  03 38  -15.4995 26133.8   3399.7   7.4118 26354.0
 13 10 2016  03 39  -15.5006 26133.3   3397.9   7.4081 26353.3
 13 10 2016  03 40  -15.5013 26132.4   3399.0   7.4107 26352.5
 13 10 2016  03 41  -15.5012 26132.8   3399.7   7.4122 26353.0
 13 10 2016  03 42  -15.4998 26133.8   3401.6   7.4160 26354.2
 13 10 2016  03 43  -15.4988 26134.8   3401.2   7.4148 26355.2
 13 10 2016  03 44  -15.4992 26135.1   3401.2   7.4147 26355.5
 13 10 2016  03 45  -15.4995 26135.5   3401.4   7.4150 26355.9
 13 10 2016  03 46  -15.4990 26135.6   3401.5   7.4154 26356.1
 13 10 2016  03 47  -15.4999 26135.4   3401.5   7.4153 26355.8
 13 10 2016  03 48  -15.5002 26135.5   3401.3   7.4150 26355.9
 13 10 2016  03 49  -15.4995 26136.4   3400.3   7.4125 26356.7
 13 10 2016  03 50  -15.4994 26136.9   3401.8   7.4156 26357.3
 13 10 2016  03 51  -15.4984 26137.6   3401.4   7.4145 26358.0
 13 10 2016  03 52  -15.4982 26137.2   3402.5   7.4170 26357.8
 13 10 2016  03 53  -15.4986 26136.6   3402.3   7.4167 26357.1
 13 10 2016  03 54  -15.4989 26135.8   3400.7   7.4134 26356.1
 13 10 2016  03 55  -15.4981 26135.3   3399.6   7.4112 26355.4
 13 10 2016  03 56  -15.4992 26133.9   3400.6   7.4139 26354.2
 13 10 2016  03 57  -15.4991 26133.5   3399.8   7.4121 26353.7
 13 10 2016  03 58  -15.5002 26132.8   3398.5   7.4095 26352.9
 13 10 2016  03 59  -15.4991 26132.7   3400.3   7.4135 26352.9
 13 10 2016  04 00  -15.4990 26132.5   3400.1   7.4131 26352.8
 13 10 2016  04 01  -15.4981 26132.8   3400.8   7.4146 26353.2
 13 10 2016  04 02  -15.4989 26133.0   3401.4   7.4157 26353.4
 13 10 2016  04 03  -15.4967 26134.1   3401.9   7.4166 26354.6
 13 10 2016  04 04  -15.4961 26134.5   3401.8   7.4162 26355.0
 13 10 2016  04 05  -15.4980 26133.7   3401.3   7.4155 26354.1
 13 10 2016  04 06  -15.4975 26133.0   3401.7   7.4164 26353.4
 13 10 2016  04 07  -15.4974 26132.4   3400.0   7.4128 26352.7
 13 10 2016  04 08  -15.4979 26131.6   3400.5   7.4142 26351.9
 13 10 2016  04 09  -15.4965 26131.7   3400.6   7.4143 26352.0
 13 10 2016  04 10  -15.4981 26130.9   3398.8   7.4107 26351.0
 13 10 2016  04 11  -15.4967 26131.0   3400.3   7.4140 26351.3
 13 10 2016  04 12  -15.4984 26130.6   3398.6   7.4105 26350.7
 13 10 2016  04 13  -15.4994 26130.1   3399.1   7.4117 26350.3
 13 10 2016  04 14  -15.4997 26129.6   3400.1   7.4139 26349.9
 13 10 2016  04 15  -15.4999 26129.5   3400.9   7.4157 26349.9
 13 10 2016  04 16  -15.4986 26129.7   3400.9   7.4156 26350.1
 13 10 2016  04 17  -15.4994 26130.0   3400.7   7.4152 26350.3
 13 10 2016  04 18  -15.4986 26129.8   3401.1   7.4160 26350.2
 13 10 2016  04 19  -15.4997 26130.3   3400.2   7.4139 26350.6
 13 10 2016  04 20  -15.5000 26129.7   3400.4   7.4146 26350.0
 13 10 2016  04 21  -15.4995 26129.7   3401.6   7.4171 26350.2
 13 10 2016  04 22  -15.4997 26129.6   3402.0   7.4181 26350.1
 13 10 2016  04 23  -15.4999 26129.5   3400.8   7.4155 26349.9
 13 10 2016  04 24  -15.5002 26129.1   3401.3   7.4167 26349.5
 13 10 2016  04 25  -15.5011 26128.7   3400.2   7.4143 26349.0
 13 10 2016  04 26  -15.5026 26128.2   3398.4   7.4106 26348.3
 13 10 2016  04 27  -15.5032 26127.5   3400.0   7.4143 26347.8
 13 10 2016  04 28  -15.5027 26128.3   3399.4   7.4128 26348.5
 13 10 2016  04 29  -15.5018 26129.2   3401.0   7.4159 26349.6
 13 10 2016  04 30  -15.5026 26129.8   3401.2   7.4162 26350.3
 13 10 2016  04 31  -15.5024 26130.4   3400.1   7.4137 26350.6
 13 10 2016  04 32  -15.5025 26130.1   3401.1   7.4159 26350.5
 13 10 2016  04 33  -15.5024 26130.3   3400.7   7.4150 26350.6
 13 10 2016  04 34  -15.5038 26130.1   3400.0   7.4135 26350.3
 13 10 2016  04 35  -15.5043 26129.7   3400.1   7.4140 26350.0
 13 10 2016  04 36  -15.5029 26129.6   3401.5   7.4170 26350.1
 13 10 2016  04 37  -15.5027 26129.9   3400.8   7.4153 26350.2
 13 10 2016  04 38  -15.5036 26129.6   3401.0   7.4158 26350.0
 13 10 2016  04 39  -15.5049 26128.8   3400.4   7.4148 26349.1
 13 10 2016  04 40  -15.5037 26129.2   3399.3   7.4123 26349.4
 13 10 2016  04 41  -15.5044 26128.9   3400.1   7.4140 26349.2
 13 10 2016  04 42  -15.5046 26128.7   3400.4   7.4148 26349.1
 13 10 2016  04 43  -15.5042 26129.3   3401.0   7.4159 26349.7
 13 10 2016  04 44  -15.5046 26129.1   3401.1   7.4162 26349.5
 13 10 2016  04 45  -15.5044 26129.3   3399.6   7.4130 26349.5
 13 10 2016  04 46  -15.5040 26128.9   3400.9   7.4158 26349.3
 13 10 2016  04 47  -15.5041 26128.8   3401.2   7.4166 26349.2
 13 10 2016  04 48  -15.5035 26129.3   3400.9   7.4157 26349.7
 13 10 2016  04 49  -15.5050 26129.2   3401.1   7.4162 26349.6
 13 10 2016  04 50  -15.5051 26129.6   3401.1   7.4161 26350.0
 13 10 2016  04 51  -15.5042 26130.1   3401.1   7.4160 26350.5
 13 10 2016  04 52  -15.5051 26130.0   3400.8   7.4153 26350.4
 13 10 2016  04 53  -15.5039 26130.4   3401.6   7.4168 26350.9
 13 10 2016  04 54  -15.5036 26131.1   3402.2   7.4181 26351.7
 13 10 2016  04 55  -15.5028 26131.8   3401.6   7.4165 26352.3
 13 10 2016  04 56  -15.5010 26133.0   3401.8   7.4167 26353.5
 13 10 2016  04 57  -15.5015 26132.0   3400.4   7.4138 26352.3
 13 10 2016  04 58  -15.5028 26131.6   3400.2   7.4135 26351.8
 13 10 2016  04 59  -15.5021 26130.8   3400.9   7.4153 26351.2
 13 10 2016  05 00  -15.5023 26130.3   3400.2   7.4139 26350.6
 13 10 2016  05 01  -15.5046 26128.8   3398.9   7.4115 26349.0
 13 10 2016  05 02  -15.5058 26128.3   3398.7   7.4112 26348.4
 13 10 2016  05 03  -15.5069 26127.8   3399.1   7.4122 26348.0
 13 10 2016  05 04  -15.5061 26128.1   3399.9   7.4140 26348.4
 13 10 2016  05 05  -15.5076 26127.7   3400.1   7.4144 26348.0
 13 10 2016  05 06  -15.5082 26128.0   3399.1   7.4122 26348.1
 13 10 2016  05 07  -15.5082 26127.8   3400.3   7.4148 26348.1
 13 10 2016  05 08  -15.5091 26127.8   3399.4   7.4128 26348.0
 13 10 2016  05 09  -15.5095 26127.6   3400.1   7.4145 26347.9
 13 10 2016  05 10  -15.5078 26127.9   3401.7   7.4179 26348.4
 13 10 2016  05 11  -15.5088 26127.8   3400.4   7.4150 26348.1
 13 10 2016  05 12  -15.5088 26127.8   3399.9   7.4141 26348.1
 13 10 2016  05 13  -15.5087 26127.9   3400.4   7.4150 26348.2
 13 10 2016  05 14  -15.5099 26128.0   3401.0   7.4162 26348.4
 13 10 2016  05 15  -15.5101 26128.3   3402.0   7.4185 26348.8
 13 10 2016  05 16  -15.5098 26128.4   3402.1   7.4187 26348.9
 13 10 2016  05 17  -15.5098 26127.5   3401.6   7.4178 26348.0
 13 10 2016  05 18  -15.5106 26127.5   3401.4   7.4174 26348.0
 13 10 2016  05 19  -15.5112 26127.5   3400.8   7.4160 26347.9
 13 10 2016  05 20  -15.5109 26128.5   3401.4   7.4171 26349.0
 13 10 2016  05 21  -15.5124 26128.1   3400.8   7.4159 26348.5
 13 10 2016  05 22  -15.5120 26129.7   3401.9   7.4177 26350.2
 13 10 2016  05 23  -15.5132 26128.9   3402.3   7.4188 26349.5
 13 10 2016  05 24  -15.5141 26129.6   3401.8   7.4176 26350.1
 13 10 2016  05 25  -15.5126 26129.5   3402.1   7.4183 26350.0
 13 10 2016  05 26  -15.5133 26130.1   3402.4   7.4187 26350.7
 13 10 2016  05 27  -15.5130 26129.4   3402.1   7.4183 26350.0
 13 10 2016  05 28  -15.5125 26131.2   3403.0   7.4198 26351.8
 13 10 2016  05 29  -15.5126 26130.1   3401.3   7.4163 26350.5
 13 10 2016  05 30  -15.5117 26130.9   3402.2   7.4180 26351.4
 13 10 2016  05 31  -15.5123 26131.2   3401.7   7.4168 26351.7
 13 10 2016  05 32  -15.5121 26131.1   3401.8   7.4172 26351.6
 13 10 2016  05 33  -15.5104 26132.2   3403.4   7.4204 26352.9
 13 10 2016  05 34  -15.5103 26132.7   3403.6   7.4207 26353.5
 13 10 2016  05 35  -15.5092 26133.9   3402.9   7.4188 26354.6
 13 10 2016  05 36  -15.5090 26134.5   3404.1   7.4212 26355.2
 13 10 2016  05 37  -15.5098 26135.4   3404.0   7.4208 26356.1
 13 10 2016  05 38  -15.5095 26136.4   3403.3   7.4189 26357.1
 13 10 2016  05 39  -15.5094 26136.5   3403.4   7.4191 26357.2
 13 10 2016  05 40  -15.5083 26136.6   3404.0   7.4203 26357.4
 13 10 2016  05 41  -15.5095 26136.4   3402.4   7.4170 26356.9
 13 10 2016  05 42  -15.5085 26136.7   3403.5   7.4193 26357.4
 13 10 2016  05 43  -15.5096 26136.7   3402.8   7.4177 26357.3
 13 10 2016  05 44  -15.5091 26137.4   3402.4   7.4168 26357.9
 13 10 2016  05 45  -15.5092 26137.2   3403.9   7.4199 26357.9
 13 10 2016  05 46  -15.5093 26137.4   3401.8   7.4153 26357.9
 13 10 2016  05 47  -15.5097 26137.5   3402.0   7.4158 26357.9
 13 10 2016  05 48  -15.5097 26137.9   3402.7   7.4171 26358.5
 13 10 2016  05 49  -15.5094 26137.8   3403.0   7.4178 26358.4
 13 10 2016  05 50  -15.5094 26138.3   3403.2   7.4181 26358.9
 13 10 2016  05 51  -15.5088 26138.5   3402.8   7.4172 26359.1
 13 10 2016  05 52  -15.5097 26138.2   3401.8   7.4152 26358.6
 13 10 2016  05 53  -15.5088 26138.9   3403.5   7.4187 26359.6
 13 10 2016  05 54  -15.5091 26139.3   3402.8   7.4171 26359.9
 13 10 2016  05 55  -15.5084 26140.4   3403.2   7.4177 26361.0
 13 10 2016  05 56  -15.5097 26140.1   3403.0   7.4173 26360.7
 13 10 2016  05 57  -15.5092 26141.1   3402.5   7.4159 26361.6
 13 10 2016  05 58  -15.5075 26141.9   3403.8   7.4185 26362.6
 13 10 2016  05 59  -15.5084 26142.9   3404.1   7.4189 26363.6
 13 10 2016  06 00  -15.5080 26143.8   3403.4   7.4171 26364.4
 13 10 2016  06 01  -15.5082 26143.9   3404.2   7.4187 26364.6
 13 10 2016  06 02  -15.5085 26145.3   3403.8   7.4175 26366.0
 13 10 2016  06 03  -15.5079 26146.6   3404.3   7.4183 26367.3
 13 10 2016  06 04  -15.5068 26147.7   3404.6   7.4185 26368.4
 13 10 2016  06 05  -15.5062 26148.4   3405.5   7.4203 26369.2
 13 10 2016  06 06  -15.5065 26149.4   3404.0   7.4167 26370.0
 13 10 2016  06 07  -15.5072 26149.9   3404.3   7.4174 26370.6
 13 10 2016  06 08  -15.5051 26151.1   3405.3   7.4190 26371.9
 13 10 2016  06 09  -15.5061 26150.8   3403.7   7.4158 26371.3
 13 10 2016  06 10  -15.5048 26150.7   3403.6   7.4156 26371.3
 13 10 2016  06 11  -15.5066 26148.8   3401.2   7.4110 26369.1
 13 10 2016  06 12  -15.5054 26147.3   3402.5   7.4142 26367.7
 13 10 2016  06 13  -15.5060 26146.6   3399.8   7.4085 26366.7
 13 10 2016  06 14  -15.5045 26147.2   3400.7   7.4102 26367.4
 13 10 2016  06 15  -15.5030 26148.1   3402.9   7.4147 26368.6
 13 10 2016  06 16  -15.5032 26148.7   3402.7   7.4141 26369.2
 13 10 2016  06 17  -15.5034 26148.6   3402.2   7.4130 26369.0
 13 10 2016  06 18  -15.5053 26145.2   3400.5   7.4103 26365.4
 13 10 2016  06 19  -15.5049 26142.5   3400.2   7.4105 26362.7
 13 10 2016  06 20  -15.5036 26140.9   3398.8   7.4079 26360.9
 13 10 2016  06 21  -15.5030 26140.3   3399.2   7.4089 26360.4
 13 10 2016  06 22  -15.5037 26140.6   3398.2   7.4067 26360.6
 13 10 2016  06 23  -15.5042 26140.7   3400.9   7.4125 26361.0
 13 10 2016  06 24  -15.5054 26140.5   3400.9   7.4127 26360.8
 13 10 2016  06 25  -15.5063 26140.4   3400.0   7.4107 26360.6
 13 10 2016  06 26  -15.5049 26141.1   3401.0   7.4126 26361.4
 13 10 2016  06 27  -15.5059 26140.8   3400.5   7.4116 26361.0
 13 10 2016  06 28  -15.5045 26140.8   3402.1   7.4151 26361.3
 13 10 2016  06 29  -15.5052 26138.9   3400.1   7.4113 26359.2
 13 10 2016  06 30  -15.5039 26134.8   3398.4   7.4087 26354.8
 13 10 2016  06 31  -15.5021 26131.4   3397.0   7.4068 26351.2
 13 10 2016  06 32  -15.5013 26128.7   3396.1   7.4055 26348.5
 13 10 2016  06 33  -15.5008 26127.6   3395.8   7.4052 26347.3
 13 10 2016  06 34  -15.5008 26127.8   3397.6   7.4090 26347.8
 13 10 2016  06 35  -15.5020 26128.4   3398.1   7.4100 26348.4
 13 10 2016  06 36  -15.5030 26128.8   3398.6   7.4109 26348.9
 13 10 2016  06 37  -15.5036 26129.1   3399.3   7.4124 26349.3
 13 10 2016  06 38  -15.5040 26129.3   3399.7   7.4132 26349.6
 13 10 2016  06 39  -15.5041 26130.3   3400.7   7.4150 26350.6
 13 10 2016  06 40  -15.5042 26130.8   3401.1   7.4158 26351.2
 13 10 2016  06 41  -15.5031 26131.4   3401.3   7.4160 26351.8
 13 10 2016  06 42  -15.5019 26131.9   3401.7   7.4167 26352.4
 13 10 2016  06 43  -15.5011 26132.2   3401.7   7.4167 26352.7
 13 10 2016  06 44  -15.4998 26131.9   3401.5   7.4163 26352.3
 13 10 2016  06 45  -15.4986 26132.0   3401.3   7.4159 26352.5
 13 10 2016  06 46  -15.4976 26131.5   3401.1   7.4155 26351.9
 13 10 2016  06 47  -15.4966 26131.1   3401.0   7.4155 26351.5
 13 10 2016  06 48  -15.4962 26130.5   3400.2   7.4139 26350.8
 13 10 2016  06 49  -15.4954 26130.0   3400.3   7.4143 26350.3
 13 10 2016  06 50  -15.4949 26129.3   3400.0   7.4139 26349.5
 13 10 2016  06 51  -15.4954 26128.7   3399.7   7.4132 26348.9
 13 10 2016  06 52  -15.4958 26127.9   3399.1   7.4122 26348.1
 13 10 2016  06 53  -15.4962 26128.1   3399.8   7.4138 26348.4
 13 10 2016  06 54  -15.4963 26128.8   3400.6   7.4152 26349.2
 13 10 2016  06 55  -15.4964 26129.1   3400.5   7.4150 26349.5
 13 10 2016  06 56  -15.4966 26128.6   3400.4   7.4148 26349.0
 13 10 2016  06 57  -15.4970 26128.0   3400.1   7.4144 26348.3
 13 10 2016  06 58  -15.4975 26127.5   3398.9   7.4119 26347.7
 13 10 2016  06 59  -15.4976 26125.1   3399.3   7.4134 26345.4
 13 10 2016  07 00  -15.4992 26123.8   3397.8   7.4105 26343.9
 13 10 2016  07 01  -15.4996 26123.3   3398.4   7.4121 26343.4
 13 10 2016  07 02  -15.4999 26123.7   3398.3   7.4117 26343.8
 13 10 2016  07 03  -15.5002 26123.7   3399.1   7.4133 26343.9
 13 10 2016  07 04  -15.4996 26123.3   3399.6   7.4146 26343.6
 13 10 2016  07 05  -15.5015 26123.3   3400.0   7.4156 26343.6
 13 10 2016  07 06  -15.5017 26122.9   3400.3   7.4162 26343.3
 13 10 2016  07 07  -15.5022 26123.5   3399.0   7.4133 26343.7
 13 10 2016  07 08  -15.5030 26123.8   3399.8   7.4150 26344.1
 13 10 2016  07 09  -15.5039 26123.3   3400.9   7.4174 26343.7
 13 10 2016  07 10  -15.5048 26122.6   3398.5   7.4124 26342.7
 13 10 2016  07 11  -15.5053 26120.0   3399.8   7.4161 26340.4
 13 10 2016  07 12  -15.5063 26116.9   3397.0   7.4108 26336.9
 13 10 2016  07 13  -15.5065 26115.5   3397.8   7.4129 26335.7
 13 10 2016  07 14  -15.5066 26113.8   3396.9   7.4114 26333.8
 13 10 2016  07 15  -15.5065 26115.8   3398.5   7.4144 26336.0
 13 10 2016  07 16  -15.5068 26119.0   3400.9   7.4186 26339.5
 13 10 2016  07 17  -15.5069 26121.2   3402.7   7.4218 26341.9
 13 10 2016  07 18  -15.5077 26121.2   3403.2   7.4230 26342.0
 13 10 2016  07 19  -15.5080 26121.1   3402.9   7.4224 26341.9
 13 10 2016  07 20  -15.5079 26121.5   3403.0   7.4224 26342.3
 13 10 2016  07 21  -15.5092 26120.7   3401.8   7.4201 26341.3
 13 10 2016  07 22  -15.5096 26119.6   3401.4   7.4196 26340.2
 13 10 2016  07 23  -15.5107 26118.5   3399.7   7.4161 26338.8
 13 10 2016  07 24  -15.5100 26118.0   3400.3   7.4175 26338.4
 13 10 2016  07 25  -15.5110 26117.4   3399.9   7.4168 26337.8
 13 10 2016  07 26  -15.5112 26117.3   3400.4   7.4180 26337.7
 13 10 2016  07 27  -15.5112 26117.0   3399.8   7.4169 26337.4
 13 10 2016  07 28  -15.5128 26116.5   3400.1   7.4176 26336.9
 13 10 2016  07 29  -15.5113 26116.8   3400.7   7.4188 26337.2
 13 10 2016  07 30  -15.5122 26116.8   3402.0   7.4215 26337.4
 13 10 2016  07 31  -15.5114 26117.2   3400.4   7.4181 26337.7
 13 10 2016  07 32  -15.5109 26117.2   3399.9   7.4170 26337.5
 13 10 2016  07 33  -15.5104 26117.0   3400.3   7.4178 26337.4
 13 10 2016  07 34  -15.5089 26116.8   3401.7   7.4209 26337.4
 13 10 2016  07 35  -15.5076 26116.8   3401.1   7.4198 26337.4
 13 10 2016  07 36  -15.5069 26116.0   3401.7   7.4211 26336.6
 13 10 2016  07 37  -15.5061 26115.1   3399.7   7.4171 26335.4
 13 10 2016  07 38  -15.5054 26114.7   3400.2   7.4183 26335.1
 13 10 2016  07 39  -15.5033 26115.2   3401.2   7.4204 26335.8
 13 10 2016  07 40  -15.5032 26115.4   3401.0   7.4197 26336.0
 13 10 2016  07 41  -15.5038 26115.1   3401.1   7.4203 26335.7
 13 10 2016  07 42  -15.5027 26114.8   3402.1   7.4224 26335.5
 13 10 2016  07 43  -15.5031 26115.0   3401.6   7.4212 26335.7
 13 10 2016  07 44  -15.5010 26115.4   3403.5   7.4251 26336.2
 13 10 2016  07 45  -15.4999 26116.3   3402.2   7.4221 26337.0
 13 10 2016  07 46  -15.5004 26116.6   3401.3   7.4202 26337.2
 13 10 2016  07 47  -15.4985 26117.3   3402.9   7.4234 26338.1
 13 10 2016  07 48  -15.4978 26117.9   3403.6   7.4249 26338.7
 13 10 2016  07 49  -15.4961 26118.0   3404.7   7.4271 26338.9
 13 10 2016  07 50  -15.4957 26117.9   3402.6   7.4226 26338.7
 13 10 2016  07 51  -15.4945 26118.0   3402.0   7.4213 26338.6
 13 10 2016  07 52  -15.4924 26118.1   3403.4   7.4243 26339.0
 13 10 2016  07 53  -15.4910 26118.6   3402.1   7.4214 26339.3
 13 10 2016  07 54  -15.4888 26118.6   3403.5   7.4244 26339.4
 13 10 2016  07 55  -15.4886 26118.5   3403.1   7.4234 26339.3
 13 10 2016  07 56  -15.4892 26118.5   3402.8   7.4230 26339.3
 13 10 2016  07 57  -15.4893 26118.4   3402.4   7.4221 26339.1
 13 10 2016  07 58  -15.4877 26118.7   3403.3   7.4238 26339.5
 13 10 2016  07 59  -15.4874 26118.1   3403.0   7.4234 26338.8
 13 10 2016  08 00  -15.4870 26117.4   3403.4   7.4245 26338.2
 13 10 2016  08 01  -15.4860 26117.3   3403.7   7.4252 26338.2
 13 10 2016  08 02  -15.4863 26117.1   3402.9   7.4235 26337.9
 13 10 2016  08 03  -15.4857 26117.5   3402.6   7.4226 26338.2
 13 10 2016  08 04  -15.4859 26117.8   3403.7   7.4249 26338.7
 13 10 2016  08 05  -15.4861 26118.0   3403.1   7.4235 26338.8
 13 10 2016  08 06  -15.4855 26117.7   3402.2   7.4218 26338.3
 13 10 2016  08 07  -15.4838 26117.7   3403.4   7.4245 26338.5
 13 10 2016  08 08  -15.4825 26117.9   3404.1   7.4257 26338.8
 13 10 2016  08 09  -15.4830 26117.2   3403.5   7.4248 26338.1
 13 10 2016  08 10  -15.4826 26117.0   3402.7   7.4230 26337.8
 13 10 2016  08 11  -15.4836 26116.8   3402.6   7.4230 26337.6
 13 10 2016  08 12  -15.4826 26117.1   3402.3   7.4221 26337.8
 13 10 2016  08 13  -15.4828 26116.6   3404.1   7.4262 26337.5
 13 10 2016  08 14  -15.4829 26116.5   3402.9   7.4236 26337.3
 13 10 2016  08 15  -15.4838 26116.3   3401.6   7.4209 26336.9
 13 10 2016  08 16  -15.4841 26115.6   3403.3   7.4248 26336.4
 13 10 2016  08 17  -15.4846 26115.2   3402.7   7.4236 26335.9
 13 10 2016  08 18  -15.4846 26115.3   3401.9   7.4218 26336.0
 13 10 2016  08 19  -15.4828 26115.4   3403.1   7.4243 26336.2
 13 10 2016  08 20  -15.4842 26115.2   3403.1   7.4244 26335.9
 13 10 2016  08 21  -15.4844 26115.3   3404.2   7.4267 26336.2
 13 10 2016  08 22  -15.4852 26114.6   3403.6   7.4257 26335.4
 13 10 2016  08 23  -15.4851 26114.1   3402.1   7.4226 26334.7
 13 10 2016  08 24  -15.4854 26114.0   3402.4   7.4234 26334.7
 13 10 2016  08 25  -15.4854 26114.1   3403.7   7.4261 26335.0
 13 10 2016  08 26  -15.4861 26114.2   3403.2   7.4249 26335.0
 13 10 2016  08 27  -15.4871 26114.0   3402.3   7.4230 26334.7
 13 10 2016  08 28  -15.4877 26114.0   3402.4   7.4232 26334.7
 13 10 2016  08 29  -15.4873 26113.7   3402.6   7.4238 26334.5
 13 10 2016  08 30  -15.4875 26113.2   3403.8   7.4265 26334.1
 13 10 2016  08 31  -15.4867 26113.2   3402.8   7.4242 26334.0
 13 10 2016  08 32  -15.4863 26112.6   3401.8   7.4224 26333.2
 13 10 2016  08 33  -15.4855 26112.1   3402.3   7.4237 26332.8
 13 10 2016  08 34  -15.4861 26111.7   3402.0   7.4231 26332.4
 13 10 2016  08 35  -15.4863 26111.9   3402.6   7.4244 26332.7
 13 10 2016  08 36  -15.4857 26112.3   3402.9   7.4248 26333.1
 13 10 2016  08 37  -15.4881 26111.2   3402.1   7.4234 26331.9
 13 10 2016  08 38  -15.4878 26110.7   3402.5   7.4245 26331.5
 13 10 2016  08 39  -15.4882 26109.8   3402.6   7.4248 26330.6
 13 10 2016  08 40  -15.4887 26109.1   3401.0   7.4216 26329.6
 13 10 2016  08 41  -15.4879 26108.5   3400.0   7.4196 26328.9
 13 10 2016  08 42  -15.4883 26107.1   3401.6   7.4236 26327.7
 13 10 2016  08 43  -15.4889 26106.8   3400.5   7.4211 26327.3
 13 10 2016  08 44  -15.4885 26107.2   3400.5   7.4210 26327.7
 13 10 2016  08 45  -15.4896 26107.1   3401.9   7.4241 26327.8
 13 10 2016  08 46  -15.4901 26107.1   3401.6   7.4235 26327.7
 13 10 2016  08 47  -15.4902 26106.6   3402.5   7.4255 26327.4
 13 10 2016  08 48  -15.4900 26106.8   3402.2   7.4250 26327.5
 13 10 2016  08 49  -15.4893 26106.8   3401.7   7.4238 26327.5
 13 10 2016  08 50  -15.4902 26106.2   3401.3   7.4230 26326.9
 13 10 2016  08 51  -15.4900 26105.8   3402.6   7.4260 26326.6
 13 10 2016  08 52  -15.4885 26106.0   3402.8   7.4263 26326.9
 13 10 2016  08 53  -15.4879 26106.0   3403.2   7.4273 26326.9
 13 10 2016  08 54  -15.4884 26106.1   3403.0   7.4267 26327.0
 13 10 2016  08 55  -15.4891 26106.2   3402.2   7.4251 26326.9
 13 10 2016  08 56  -15.4884 26106.7   3401.4   7.4233 26327.3
 13 10 2016  08 57  -15.4882 26106.4   3402.2   7.4250 26327.2
 13 10 2016  08 58  -15.4878 26106.6   3401.7   7.4237 26327.3
 13 10 2016  08 59  -15.4870 26106.6   3402.3   7.4252 26327.4
 13 10 2016  09 00  -15.4872 26106.6   3402.3   7.4252 26327.3
 13 10 2016  09 01  -15.4869 26106.9   3402.6   7.4257 26327.7
 13 10 2016  09 02  -15.4874 26107.1   3402.7   7.4260 26327.9
 13 10 2016  09 03  -15.4862 26107.6   3402.4   7.4251 26328.4
 13 10 2016  09 04  -15.4863 26107.3   3403.2   7.4269 26328.2
 13 10 2016  09 05  -15.4857 26107.4   3403.1   7.4266 26328.3
 13 10 2016  09 06  -15.4849 26107.7   3403.2   7.4267 26328.6
 13 10 2016  09 07  -15.4840 26107.8   3402.7   7.4257 26328.6
 13 10 2016  09 08  -15.4835 26107.8   3403.0   7.4264 26328.7
 13 10 2016  09 09  -15.4831 26107.9   3403.1   7.4265 26328.8
 13 10 2016  09 10  -15.4817 26108.2   3403.4   7.4271 26329.1
 13 10 2016  09 11  -15.4818 26107.6   3404.4   7.4293 26328.6
 13 10 2016  09 12  -15.4814 26107.6   3404.2   7.4289 26328.6
 13 10 2016  09 13  -15.4805 26108.2   3404.4   7.4293 26329.2
 13 10 2016  09 14  -15.4800 26108.8   3403.8   7.4278 26329.8
 13 10 2016  09 15  -15.4794 26108.2   3404.9   7.4302 26329.2
 13 10 2016  09 16  -15.4783 26108.5   3404.0   7.4283 26329.4
 13 10 2016  09 17  -15.4784 26109.2   3404.9   7.4301 26330.2
 13 10 2016  09 18  -15.4767 26109.0   3405.1   7.4305 26330.1
 13 10 2016  09 19  -15.4764 26108.2   3404.6   7.4297 26329.2
 13 10 2016  09 20  -15.4751 26107.8   3404.9   7.4305 26328.9
 13 10 2016  09 21  -15.4752 26107.8   3404.0   7.4284 26328.7
 13 10 2016  09 22  -15.4756 26107.7   3405.0   7.4307 26328.8
 13 10 2016  09 23  -15.4756 26107.6   3404.9   7.4304 26328.7
 13 10 2016  09 24  -15.4755 26107.0   3405.7   7.4324 26328.2
 13 10 2016  09 25  -15.4761 26107.0   3405.7   7.4323 26328.2
 13 10 2016  09 26  -15.4749 26107.1   3405.4   7.4316 26328.2
 13 10 2016  09 27  -15.4744 26106.9   3407.2   7.4356 26328.3
 13 10 2016  09 28  -15.4745 26106.0   3406.2   7.4337 26327.3
 13 10 2016  09 29  -15.4732 26105.4   3406.2   7.4340 26326.7
 13 10 2016  09 30  -15.4744 26104.6   3405.9   7.4334 26325.9
 13 10 2016  09 31  -15.4759 26104.0   3406.6   7.4352 26325.3
 13 10 2016  09 32  -15.4769 26103.5   3406.4   7.4349 26324.8
 13 10 2016  09 33  -15.4772 26102.7   3408.0   7.4385 26324.2
 13 10 2016  09 34  -15.4783 26101.9   3407.7   7.4382 26323.4
 13 10 2016  09 35  -15.4788 26101.3   3407.7   7.4383 26322.8
 13 10 2016  09 36  -15.4794 26100.8   3407.9   7.4389 26322.3
 13 10 2016  09 37  -15.4805 26100.3   3408.9   7.4412 26321.9
 13 10 2016  09 38  -15.4813 26099.5   3410.2   7.4442 26321.3
 13 10 2016  09 39  -15.4824 26099.1   3409.0   7.4418 26320.8
 13 10 2016  09 40  -15.4846 26098.5   3409.8   7.4436 26320.3
 13 10 2016  09 41  -15.4842 26099.4   3411.3   7.4466 26321.4
 13 10 2016  09 42  -15.4858 26098.8   3411.5   7.4472 26320.8
 13 10 2016  09 43  -15.4863 26097.4   3410.8   7.4461 26319.4
 13 10 2016  09 44  -15.4862 26097.2   3410.6   7.4458 26319.1
 13 10 2016  09 45  -15.4866 26096.6   3411.2   7.4471 26318.6
 13 10 2016  09 46  -15.4865 26095.7   3410.9   7.4467 26317.7
 13 10 2016  09 47  -15.4861 26095.5   3410.4   7.4457 26317.4
 13 10 2016  09 48  -15.4852 26095.1   3411.2   7.4477 26317.1
 13 10 2016  09 49  -15.4849 26094.1   3412.1   7.4498 26316.2
 13 10 2016  09 50  -15.4842 26093.4   3411.8   7.4493 26315.5
 13 10 2016  09 51  -15.4838 26093.2   3411.6   7.4491 26315.3
 13 10 2016  09 52  -15.4838 26092.9   3411.7   7.4492 26315.0
 13 10 2016  09 53  -15.4831 26092.6   3412.7   7.4516 26314.8
 13 10 2016  09 54  -15.4844 26092.1   3411.9   7.4499 26314.3
 13 10 2016  09 55  -15.4850 26092.0   3412.0   7.4502 26314.2
 13 10 2016  09 56  -15.4861 26091.8   3412.4   7.4512 26314.0
 13 10 2016  09 57  -15.4876 26091.5   3413.2   7.4530 26313.9
 13 10 2016  09 58  -15.4891 26091.8   3413.2   7.4527 26314.1
 13 10 2016  09 59  -15.4903 26091.6   3413.3   7.4531 26313.9
 13 10 2016  10 00  -15.4906 26091.6   3413.3   7.4532 26314.0
 13 10 2016  10 01  -15.4911 26091.9   3413.9   7.4543 26314.3
 13 10 2016  10 02  -15.4923 26092.1   3413.7   7.4538 26314.5
 13 10 2016  10 03  -15.4938 26092.3   3414.3   7.4551 26314.8
 13 10 2016  10 04  -15.4955 26092.7   3413.8   7.4540 26315.1
 13 10 2016  10 05  -15.4964 26092.4   3414.1   7.4545 26314.8
 13 10 2016  10 06  -15.4972 26092.1   3414.3   7.4552 26314.5
 13 10 2016  10 07  -15.4979 26091.8   3414.3   7.4552 26314.3
 13 10 2016  10 08  -15.4982 26091.4   3413.9   7.4545 26313.8
 13 10 2016  10 09  -15.4987 26091.1   3414.5   7.4558 26313.6
 13 10 2016  10 10  -15.4997 26090.8   3414.1   7.4551 26313.2
 13 10 2016  10 11  -15.4990 26090.6   3415.3   7.4578 26313.2
 13 10 2016  10 12  -15.5002 26090.4   3414.6   7.4563 26312.9
 13 10 2016  10 13  -15.4996 26090.3   3415.7   7.4586 26313.0
 13 10 2016  10 14  -15.4993 26090.5   3415.5   7.4581 26313.1
 13 10 2016  10 15  -15.4993 26090.2   3415.8   7.4589 26312.8
 13 10 2016  10 16  -15.4988 26090.4   3415.6   7.4583 26313.1
 13 10 2016  10 17  -15.4987 26089.9   3416.1   7.4595 26312.6
 13 10 2016  10 18  -15.4980 26089.4   3415.8   7.4591 26312.0
 13 10 2016  10 19  -15.4980 26088.9   3415.9   7.4595 26311.6
 13 10 2016  10 20  -15.4969 26088.7   3416.6   7.4611 26311.4
 13 10 2016  10 21  -15.4967 26088.8   3416.8   7.4614 26311.6
 13 10 2016  10 22  -15.4965 26088.5   3416.8   7.4615 26311.3
 13 10 2016  10 23  -15.4967 26088.2   3416.9   7.4617 26311.0
 13 10 2016  10 24  -15.4968 26089.0   3417.3   7.4624 26311.8
 13 10 2016  10 25  -15.4985 26088.6   3416.8   7.4615 26311.4
 13 10 2016  10 26  -15.4988 26088.1   3417.0   7.4620 26310.9
 13 10 2016  10 27  -15.4990 26087.9   3416.2   7.4603 26310.6
 13 10 2016  10 28  -15.4999 26087.6   3417.1   7.4624 26310.5
 13 10 2016  10 29  -15.5014 26087.4   3416.0   7.4602 26310.1
 13 10 2016  10 30  -15.5022 26086.5   3415.6   7.4596 26309.2
 13 10 2016  10 31  -15.5024 26084.8   3416.3   7.4615 26307.6
 13 10 2016  10 32  -15.5027 26083.0   3415.1   7.4594 26305.6
 13 10 2016  10 33  -15.5005 26081.9   3416.4   7.4626 26304.7
 13 10 2016  10 34  -15.5010 26080.8   3417.0   7.4642 26303.7
 13 10 2016  10 35  -15.5009 26080.1   3416.9   7.4642 26302.9
 13 10 2016  10 36  -15.4996 26079.6   3417.3   7.4652 26302.6
 13 10 2016  10 37  -15.4982 26078.4   3418.1   7.4671 26301.5
 13 10 2016  10 38  -15.4961 26077.4   3417.9   7.4671 26300.5
 13 10 2016  10 39  -15.4954 26077.4   3418.6   7.4686 26300.6
 13 10 2016  10 40  -15.4968 26077.0   3418.8   7.4691 26300.2
 13 10 2016  10 41  -15.4968 26075.3   3418.4   7.4688 26298.5
 13 10 2016  10 42  -15.4969 26074.5   3417.5   7.4669 26297.5
 13 10 2016  10 43  -15.4969 26073.2   3418.3   7.4691 26296.3
 13 10 2016  10 44  -15.4974 26072.5   3419.4   7.4718 26295.8
 13 10 2016  10 45  -15.4977 26072.0   3419.0   7.4709 26295.2
 13 10 2016  10 46  -15.4979 26071.4   3420.0   7.4733 26294.8
 13 10 2016  10 47  -15.4972 26071.3   3420.5   7.4743 26294.7
 13 10 2016  10 48  -15.4963 26071.9   3421.5   7.4764 26295.5
 13 10 2016  10 49  -15.4963 26072.8   3421.3   7.4756 26296.3
 13 10 2016  10 50  -15.4974 26074.0   3422.3   7.4775 26297.6
 13 10 2016  10 51  -15.4998 26074.4   3421.4   7.4755 26297.9
 13 10 2016  10 52  -15.5021 26073.7   3420.4   7.4735 26297.0
 13 10 2016  10 53  -15.5036 26072.4   3420.0   7.4730 26295.8
 13 10 2016  10 54  -15.5042 26071.0   3420.8   7.4752 26294.5
 13 10 2016  10 55  -15.5031 26071.0   3421.3   7.4761 26294.6
 13 10 2016  10 56  -15.5020 26071.7   3421.6   7.4768 26295.3
 13 10 2016  10 57  -15.5023 26072.8   3421.9   7.4770 26296.4
 13 10 2016  10 58  -15.5024 26073.5   3422.3   7.4776 26297.2
 13 10 2016  10 59  -15.5021 26074.1   3421.4   7.4755 26297.6
 13 10 2016  11 00  -15.5022 26075.3   3422.6   7.4777 26299.0
 13 10 2016  11 01  -15.5025 26075.4   3422.2   7.4769 26299.0
 13 10 2016  11 02  -15.5022 26075.5   3421.6   7.4756 26299.1
 13 10 2016  11 03  -15.5001 26075.9   3421.8   7.4760 26299.5
 13 10 2016  11 04  -15.4990 26077.0   3422.1   7.4763 26300.6
 13 10 2016  11 05  -15.4999 26078.2   3421.9   7.4755 26301.8
 13 10 2016  11 06  -15.5041 26077.1   3420.5   7.4728 26300.5
 13 10 2016  11 07  -15.5079 26075.1   3418.0   7.4680 26298.1
 13 10 2016  11 08  -15.5120 26072.5   3418.7   7.4701 26295.7
 13 10 2016  11 09  -15.5150 26070.5   3418.7   7.4708 26293.7
 13 10 2016  11 10  -15.5163 26068.1   3418.7   7.4714 26291.4
 13 10 2016  11 11  -15.5165 26066.6   3420.1   7.4750 26290.0
 13 10 2016  11 12  -15.5171 26064.7   3421.5   7.4785 26288.3
 13 10 2016  11 13  -15.5167 26063.8   3422.9   7.4817 26287.6
 13 10 2016  11 14  -15.5154 26063.6   3424.0   7.4841 26287.5
 13 10 2016  11 15  -15.5164 26062.8   3424.7   7.4860 26286.9
 13 10 2016  11 16  -15.5174 26061.9   3426.1   7.4892 26286.1
 13 10 2016  11 17  -15.5178 26062.2   3427.0   7.4910 26286.6
 13 10 2016  11 18  -15.5187 26061.3   3427.4   7.4921 26285.8
 13 10 2016  11 19  -15.5195 26061.0   3427.4   7.4923 26285.4
 13 10 2016  11 20  -15.5187 26060.7   3428.6   7.4950 26285.3
 13 10 2016  11 21  -15.5198 26060.2   3429.2   7.4963 26284.9
 13 10 2016  11 22  -15.5214 26060.3   3429.8   7.4976 26285.1
 13 10 2016  11 23  -15.5217 26059.0   3430.2   7.4989 26283.8
 13 10 2016  11 24  -15.5223 26057.9   3430.6   7.5000 26282.7
 13 10 2016  11 25  -15.5233 26058.5   3430.7   7.5001 26283.4
 13 10 2016  11 26  -15.5233 26058.7   3431.3   7.5014 26283.6
 13 10 2016  11 27  -15.5231 26059.3   3432.1   7.5028 26284.4
 13 10 2016  11 28  -15.5226 26059.1   3431.5   7.5016 26284.1
 13 10 2016  11 29  -15.5218 26059.3   3432.1   7.5030 26284.3
 13 10 2016  11 30  -15.5232 26057.9   3430.9   7.5006 26282.8
 13 10 2016  11 31  -15.5248 26058.1   3430.4   7.4996 26282.9
 13 10 2016  11 32  -15.5250 26057.5   3431.5   7.5020 26282.5
 13 10 2016  11 33  -15.5243 26057.8   3431.5   7.5020 26282.8
 13 10 2016  11 34  -15.5257 26059.4   3431.5   7.5016 26284.4
 13 10 2016  11 35  -15.5256 26060.7   3432.7   7.5037 26285.8
 13 10 2016  11 36  -15.5255 26061.2   3432.0   7.5020 26286.2
 13 10 2016  11 37  -15.5253 26060.9   3431.5   7.5010 26285.8
 13 10 2016  11 38  -15.5250 26062.2   3431.3   7.5003 26287.1
 13 10 2016  11 39  -15.5262 26063.9   3431.7   7.5008 26288.9
 13 10 2016  11 40  -15.5258 26064.8   3431.2   7.4994 26289.6
 13 10 2016  11 41  -15.5234 26065.6   3430.8   7.4983 26290.5
 13 10 2016  11 42  -15.5220 26067.9   3431.0   7.4980 26292.7
 13 10 2016  11 43  -15.5212 26070.5   3430.5   7.4962 26295.3
 13 10 2016  11 44  -15.5218 26072.3   3429.2   7.4929 26296.9
 13 10 2016  11 45  -15.5224 26073.5   3427.8   7.4896 26297.9
 13 10 2016  11 46  -15.5220 26074.5   3426.4   7.4862 26298.7
 13 10 2016  11 47  -15.5229 26074.9   3424.6   7.4822 26298.9
 13 10 2016  11 48  -15.5227 26074.6   3422.8   7.4784 26298.3
 13 10 2016  11 49  -15.5217 26073.8   3420.8   7.4744 26297.2
 13 10 2016  11 50  -15.5204 26074.7   3421.4   7.4754 26298.2
 13 10 2016  11 51  -15.5192 26077.1   3420.5   7.4727 26300.5
 13 10 2016  11 52  -15.5175 26078.5   3419.1   7.4693 26301.6
 13 10 2016  11 53  -15.5189 26076.4   3417.4   7.4663 26299.4
 13 10 2016  11 54  -15.5211 26072.6   3413.7   7.4594 26295.2
 13 10 2016  11 55  -15.5226 26067.7   3412.6   7.4583 26290.1
 13 10 2016  11 56  -15.5268 26062.0   3411.3   7.4572 26284.3
 13 10 2016  11 57  -15.5300 26056.5   3411.2   7.4585 26278.8
 13 10 2016  11 58  -15.5328 26053.2   3412.8   7.4629 26275.8
 13 10 2016  11 59  -15.5321 26053.4   3417.1   7.4722 26276.5
 13 10 2016  12 00  -15.5310 26053.9   3419.4   7.4769 26277.4
 13 10 2016  12 01  -15.5303 26056.7   3421.7   7.4810 26280.4
 13 10 2016  12 02  -15.5292 26059.7   3423.7   7.4845 26283.6
 13 10 2016  12 03  -15.5286 26061.8   3423.9   7.4845 26285.7
 13 10 2016  12 04  -15.5277 26062.6   3423.4   7.4832 26286.5
 13 10 2016  12 05  -15.5283 26062.2   3422.3   7.4810 26285.9
 13 10 2016  12 06  -15.5292 26061.6   3419.4   7.4748 26284.9
 13 10 2016  12 07  -15.5287 26061.1   3419.8   7.4758 26284.5
 13 10 2016  12 08  -15.5276 26061.4   3419.4   7.4747 26284.8
 13 10 2016  12 09  -15.5273 26062.1   3418.9   7.4736 26285.4
 13 10 2016  12 10  -15.5260 26062.8   3420.0   7.4757 26286.2
 13 10 2016  12 11  -15.5258 26063.2   3419.9   7.4754 26286.6
 13 10 2016  12 12  -15.5245 26064.3   3419.4   7.4739 26287.7
 13 10 2016  12 13  -15.5244 26065.3   3418.7   7.4723 26288.6
 13 10 2016  12 14  -15.5238 26066.3   3417.4   7.4691 26289.3
 13 10 2016  12 15  -15.5232 26067.4   3417.0   7.4680 26290.4
 13 10 2016  12 16  -15.5233 26068.1   3415.9   7.4655 26290.9
 13 10 2016  12 17  -15.5236 26069.2   3414.9   7.4629 26291.9
 13 10 2016  12 18  -15.5252 26070.5   3413.9   7.4604 26293.0
 13 10 2016  12 19  -15.5265 26071.2   3414.1   7.4607 26293.7
 13 10 2016  12 20  -15.5279 26071.3   3410.9   7.4536 26293.4
 13 10 2016  12 21  -15.5294 26069.6   3410.1   7.4524 26291.7
 13 10 2016  12 22  -15.5321 26068.6   3407.6   7.4472 26290.4
 13 10 2016  12 23  -15.5330 26068.1   3408.6   7.4495 26290.0
 13 10 2016  12 24  -15.5352 26067.8   3407.6   7.4475 26289.6
 13 10 2016  12 25  -15.5345 26069.2   3407.1   7.4460 26290.9
 13 10 2016  12 26  -15.5308 26072.4   3408.7   7.4485 26294.3
 13 10 2016  12 27  -15.5273 26075.8   3408.6   7.4475 26297.7
 13 10 2016  12 28  -15.5237 26080.8   3409.9   7.4488 26302.8
 13 10 2016  12 29  -15.5207 26086.3   3409.0   7.4453 26308.1
 13 10 2016  12 30  -15.5195 26090.1   3406.1   7.4380 26311.5
 13 10 2016  12 31  -15.5182 26093.6   3404.8   7.4342 26314.8
 13 10 2016  12 32  -15.5172 26096.6   3402.4   7.4281 26317.4
 13 10 2016  12 33  -15.5169 26099.6   3400.5   7.4232 26320.2
 13 10 2016  12 34  -15.5164 26102.4   3399.4   7.4200 26322.9
 13 10 2016  12 35  -15.5159 26105.4   3397.4   7.4148 26325.6
 13 10 2016  12 36  -15.5162 26109.6   3395.4   7.4095 26329.4
 13 10 2016  12 37  -15.5169 26113.5   3393.7   7.4047 26333.1
 13 10 2016  12 38  -15.5178 26116.6   3391.7   7.3994 26335.9
 13 10 2016  12 39  -15.5186 26120.2   3390.1   7.3949 26339.3
 13 10 2016  12 40  -15.5192 26124.1   3388.3   7.3901 26342.9
 13 10 2016  12 41  -15.5197 26126.8   3386.0   7.3844 26345.3
 13 10 2016  12 42  -15.5197 26128.4   3383.2   7.3778 26346.6
 13 10 2016  12 43  -15.5189 26132.4   3383.2   7.3767 26350.5
 13 10 2016  12 44  -15.5196 26137.0   3382.4   7.3736 26354.9
 13 10 2016  12 45  -15.5208 26140.2   3380.5   7.3686 26357.9
 13 10 2016  12 46  -15.5231 26141.8   3377.5   7.3618 26359.0
 13 10 2016  12 47  -15.5257 26141.8   3374.6   7.3556 26358.8
 13 10 2016  12 48  -15.5271 26142.8   3373.6   7.3531 26359.6
 13 10 2016  12 49  -15.5288 26143.0   3371.3   7.3482 26359.5
 13 10 2016  12 50  -15.5309 26140.6   3369.2   7.3442 26356.8
 13 10 2016  12 51  -15.5346 26138.1   3367.1   7.3404 26354.1
 13 10 2016  12 52  -15.5370 26132.3   3364.6   7.3365 26348.0
 13 10 2016  12 53  -15.5385 26126.1   3363.7   7.3364 26341.7
 13 10 2016  12 54  -15.5380 26120.8   3365.0   7.3406 26336.7
 13 10 2016  12 55  -15.5377 26116.0   3364.8   7.3416 26331.9
 13 10 2016  12 56  -15.5390 26110.7   3366.6   7.3468 26326.9
 13 10 2016  12 57  -15.5399 26106.5   3368.7   7.3525 26322.9
 13 10 2016  12 58  -15.5396 26103.7   3372.2   7.3609 26320.7
 13 10 2016  12 59  -15.5398 26101.5   3373.3   7.3640 26318.5
 13 10 2016  13 00  -15.5389 26099.5   3376.8   7.3720 26317.0
 13 10 2016  13 01  -15.5400 26097.6   3378.3   7.3759 26315.3
 13 10 2016  13 02  -15.5400 26097.2   3381.9   7.3838 26315.4
 13 10 2016  13 03  -15.5403 26096.8   3383.4   7.3870 26315.2
 13 10 2016  13 04  -15.5407 26095.6   3384.5   7.3898 26314.2
 13 10 2016  13 05  -15.5405 26093.9   3385.7   7.3929 26312.6
 13 10 2016  13 06  -15.5396 26094.4   3388.8   7.3994 26313.5
 13 10 2016  13 07  -15.5402 26094.9   3389.1   7.3998 26314.1
 13 10 2016  13 08  -15.5404 26094.5   3390.4   7.4028 26313.8
 13 10 2016  13 09  -15.5414 26094.8   3390.1   7.4020 26314.1
 13 10 2016  13 10  -15.5429 26094.8   3390.0   7.4018 26314.1
 13 10 2016  13 11  -15.5446 26094.3   3389.4   7.4008 26313.5
 13 10 2016  13 12  -15.5461 26094.1   3389.2   7.4004 26313.3
 13 10 2016  13 13  -15.5468 26093.9   3389.5   7.4010 26313.2
 13 10 2016  13 14  -15.5474 26093.9   3388.5   7.3988 26313.0
 13 10 2016  13 15  -15.5477 26092.9   3388.7   7.3997 26312.0
 13 10 2016  13 16  -15.5485 26093.8   3389.5   7.4011 26313.0
 13 10 2016  13 17  -15.5496 26094.3   3389.2   7.4004 26313.5
 13 10 2016  13 18  -15.5495 26095.1   3389.6   7.4010 26314.3
 13 10 2016  13 19  -15.5498 26095.3   3388.5   7.3985 26314.4
 13 10 2016  13 20  -15.5497 26094.8   3387.4   7.3962 26313.8
 13 10 2016  13 21  -15.5494 26094.2   3386.4   7.3942 26313.0
 13 10 2016  13 22  -15.5496 26093.6   3386.8   7.3953 26312.4
 13 10 2016  13 23  -15.5498 26094.8   3386.6   7.3944 26313.6
 13 10 2016  13 24  -15.5500 26094.8   3386.5   7.3943 26313.7
 13 10 2016  13 25  -15.5495 26094.5   3385.7   7.3927 26313.2
 13 10 2016  13 26  -15.5502 26094.6   3385.3   7.3919 26313.3
 13 10 2016  13 27  -15.5514 26095.1   3384.3   7.3895 26313.6
 13 10 2016  13 28  -15.5513 26096.3   3384.4   7.3893 26314.9
 13 10 2016  13 29  -15.5519 26097.5   3384.3   7.3888 26316.0
 13 10 2016  13 30  -15.5518 26098.8   3384.8   7.3896 26317.4
 13 10 2016  13 31  -15.5514 26100.1   3383.0   7.3852 26318.5
 13 10 2016  13 32  -15.5509 26101.7   3382.4   7.3835 26320.0
 13 10 2016  13 33  -15.5514 26103.2   3382.1   7.3826 26321.4
 13 10 2016  13 34  -15.5508 26106.0   3381.9   7.3812 26324.2
 13 10 2016  13 35  -15.5511 26107.8   3381.1   7.3790 26325.9
 13 10 2016  13 36  -15.5515 26107.9   3378.7   7.3738 26325.6
 13 10 2016  13 37  -15.5509 26107.8   3377.5   7.3713 26325.3
 13 10 2016  13 38  -15.5502 26108.0   3376.5   7.3690 26325.4
 13 10 2016  13 39  -15.5504 26107.6   3374.8   7.3656 26324.9
 13 10 2016  13 40  -15.5506 26106.8   3373.7   7.3633 26323.9
 13 10 2016  13 41  -15.5505 26106.6   3372.9   7.3616 26323.6
 13 10 2016  13 42  -15.5493 26107.3   3373.4   7.3625 26324.4
 13 10 2016  13 43  -15.5489 26108.0   3373.3   7.3622 26325.1
 13 10 2016  13 44  -15.5492 26107.5   3371.6   7.3586 26324.3
 13 10 2016  13 45  -15.5488 26107.6   3371.1   7.3574 26324.3
 13 10 2016  13 46  -15.5484 26106.8   3369.8   7.3550 26323.4
 13 10 2016  13 47  -15.5494 26105.5   3369.0   7.3536 26322.0
 13 10 2016  13 48  -15.5496 26105.0   3369.1   7.3539 26321.5
 13 10 2016  13 49  -15.5486 26105.9   3370.3   7.3562 26322.6
 13 10 2016  13 50  -15.5479 26107.1   3370.0   7.3553 26323.7
 13 10 2016  13 51  -15.5461 26107.6   3370.1   7.3554 26324.3
 13 10 2016  13 52  -15.5450 26108.2   3368.9   7.3526 26324.6
 13 10 2016  13 53  -15.5455 26108.6   3368.0   7.3506 26325.0
 13 10 2016  13 54  -15.5465 26108.2   3367.0   7.3485 26324.4
 13 10 2016  13 55  -15.5469 26106.2   3366.0   7.3468 26322.3
 13 10 2016  13 56  -15.5478 26103.5   3363.6   7.3425 26319.3
 13 10 2016  13 57  -15.5478 26103.0   3364.1   7.3436 26318.9
 13 10 2016  13 58  -15.5476 26104.3   3364.4   7.3441 26320.2
 13 10 2016  13 59  -15.5469 26105.4   3365.2   7.3453 26321.4
 13 10 2016  14 00  -15.5472 26105.4   3366.2   7.3475 26321.6
 13 10 2016  14 01  -15.5475 26106.1   3365.0   7.3449 26322.1
 13 10 2016  14 02  -15.5463 26105.9   3364.9   7.3446 26321.9
 13 10 2016  14 03  -15.5458 26105.6   3363.9   7.3424 26321.5
 13 10 2016  14 04  -15.5452 26105.0   3362.9   7.3406 26320.7
 13 10 2016  14 05  -15.5453 26104.9   3363.0   7.3408 26320.7
 13 10 2016  14 06  -15.5448 26105.9   3363.4   7.3413 26321.7
 13 10 2016  14 07  -15.5437 26105.8   3363.4   7.3414 26321.6
 13 10 2016  14 08  -15.5444 26105.8   3361.7   7.3377 26321.4
 13 10 2016  14 09  -15.5433 26105.7   3361.8   7.3380 26321.3
 13 10 2016  14 10  -15.5447 26104.6   3361.4   7.3374 26320.1
 13 10 2016  14 11  -15.5438 26104.3   3361.5   7.3377 26319.9
 13 10 2016  14 12  -15.5441 26104.1   3361.0   7.3367 26319.6
 13 10 2016  14 13  -15.5438 26104.5   3360.4   7.3352 26319.9
 13 10 2016  14 14  -15.5431 26104.8   3361.3   7.3371 26320.3
 13 10 2016  14 15  -15.5431 26105.7   3360.4   7.3349 26321.1
 13 10 2016  14 16  -15.5439 26105.5   3360.7   7.3357 26320.9
 13 10 2016  14 17  -15.5435 26106.0   3360.3   7.3346 26321.4
 13 10 2016  14 18  -15.5436 26106.3   3359.5   7.3329 26321.6
 13 10 2016  14 19  -15.5441 26106.3   3359.9   7.3336 26321.6
 13 10 2016  14 20  -15.5436 26106.5   3359.9   7.3336 26321.8
 13 10 2016  14 21  -15.5442 26106.0   3358.8   7.3314 26321.2
 13 10 2016  14 22  -15.5430 26105.6   3358.7   7.3314 26320.7
 13 10 2016  14 23  -15.5432 26104.2   3358.3   7.3309 26319.3
 13 10 2016  14 24  -15.5445 26102.5   3357.5   7.3297 26317.6
 13 10 2016  14 25  -15.5455 26101.5   3358.4   7.3319 26316.7
 13 10 2016  14 26  -15.5463 26101.5   3357.4   7.3297 26316.6
 13 10 2016  14 27  -15.5458 26101.4   3359.3   7.3338 26316.6
 13 10 2016  14 28  -15.5469 26101.5   3359.6   7.3345 26316.8
 13 10 2016  14 29  -15.5474 26104.0   3359.4   7.3333 26319.3
 13 10 2016  14 30  -15.5473 26105.4   3359.3   7.3326 26320.7
 13 10 2016  14 31  -15.5470 26106.4   3358.9   7.3316 26321.6
 13 10 2016  14 32  -15.5471 26106.1   3359.5   7.3330 26321.3
 13 10 2016  14 33  -15.5481 26104.4   3357.8   7.3297 26319.5
 13 10 2016  14 34  -15.5480 26103.6   3357.3   7.3288 26318.7
 13 10 2016  14 35  -15.5488 26103.0   3358.1   7.3307 26318.1
 13 10 2016  14 36  -15.5484 26102.6   3358.1   7.3308 26317.8
 13 10 2016  14 37  -15.5477 26102.3   3357.7   7.3301 26317.4
 13 10 2016  14 38  -15.5492 26101.5   3356.9   7.3287 26316.5
 13 10 2016  14 39  -15.5492 26102.0   3357.5   7.3297 26317.1
 13 10 2016  14 40  -15.5497 26101.6   3357.6   7.3300 26316.7
 13 10 2016  14 41  -15.5485 26101.4   3358.5   7.3321 26316.6
 13 10 2016  14 42  -15.5487 26101.4   3358.2   7.3313 26316.5
 13 10 2016  14 43  -15.5498 26099.6   3357.0   7.3293 26314.6
 13 10 2016  14 44  -15.5504 26098.0   3357.5   7.3308 26313.0
 13 10 2016  14 45  -15.5499 26097.2   3356.5   7.3289 26312.1
 13 10 2016  14 46  -15.5493 26095.3   3356.4   7.3293 26310.2
 13 10 2016  14 47  -15.5490 26093.5   3356.5   7.3299 26308.5
 13 10 2016  14 48  -15.5487 26091.5   3357.5   7.3326 26306.7
 13 10 2016  14 49  -15.5487 26090.3   3357.3   7.3325 26305.4
 13 10 2016  14 50  -15.5484 26089.4   3358.2   7.3348 26304.6
 13 10 2016  14 51  -15.5471 26090.2   3359.1   7.3364 26305.6
 13 10 2016  14 52  -15.5460 26092.3   3360.2   7.3382 26307.8
 13 10 2016  14 53  -15.5452 26094.3   3361.4   7.3402 26310.0
 13 10 2016  14 54  -15.5441 26095.9   3361.9   7.3408 26311.6
 13 10 2016  14 55  -15.5434 26098.0   3361.7   7.3398 26313.6
 13 10 2016  14 56  -15.5435 26099.6   3360.2   7.3363 26315.0
 13 10 2016  14 57  -15.5438 26099.7   3359.4   7.3345 26315.0
 13 10 2016  14 58  -15.5431 26100.0   3358.8   7.3330 26315.3
 13 10 2016  14 59  -15.5436 26099.8   3356.6   7.3283 26314.8
 13 10 2016  15 00  -15.5426 26100.7   3357.5   7.3300 26315.8
 13 10 2016  15 01  -15.5428 26101.2   3357.2   7.3293 26316.3
 13 10 2016  15 02  -15.5431 26102.0   3357.2   7.3290 26317.0
 13 10 2016  15 03  -15.5439 26102.5   3355.8   7.3258 26317.3
 13 10 2016  15 04  -15.5455 26102.5   3354.5   7.3231 26317.2
 13 10 2016  15 05  -15.5458 26101.9   3353.7   7.3215 26316.5
 13 10 2016  15 06  -15.5472 26100.0   3352.0   7.3185 26314.4
 13 10 2016  15 07  -15.5477 26098.7   3352.0   7.3187 26313.1
 13 10 2016  15 08  -15.5492 26096.5   3350.8   7.3168 26310.7
 13 10 2016  15 09  -15.5491 26095.0   3351.0   7.3176 26309.3
 13 10 2016  15 10  -15.5482 26095.3   3352.5   7.3207 26309.8
 13 10 2016  15 11  -15.5468 26098.3   3352.9   7.3207 26312.8
 13 10 2016  15 12  -15.5463 26102.1   3355.0   7.3242 26316.8
 13 10 2016  15 13  -15.5460 26106.8   3355.5   7.3241 26321.5
 13 10 2016  15 14  -15.5448 26110.8   3356.1   7.3243 26325.6
 13 10 2016  15 15  -15.5445 26114.9   3354.4   7.3194 26329.4
 13 10 2016  15 16  -15.5442 26116.9   3354.1   7.3183 26331.4
 13 10 2016  15 17  -15.5433 26117.4   3351.6   7.3126 26331.6
 13 10 2016  15 18  -15.5433 26117.2   3349.3   7.3078 26331.1
 13 10 2016  15 19  -15.5429 26117.6   3347.2   7.3031 26331.2
 13 10 2016  15 20  -15.5446 26116.2   3346.2   7.3014 26329.7
 13 10 2016  15 21  -15.5459 26114.2   3343.5   7.2962 26327.4
 13 10 2016  15 22  -15.5448 26111.8   3343.0   7.2956 26324.9
 13 10 2016  15 23  -15.5448 26110.9   3343.7   7.2975 26324.1
 13 10 2016  15 24  -15.5457 26109.2   3342.2   7.2947 26322.2
 13 10 2016  15 25  -15.5473 26105.7   3341.5   7.2941 26318.6
 13 10 2016  15 26  -15.5479 26102.7   3341.1   7.2940 26315.6
 13 10 2016  15 27  -15.5478 26101.4   3342.7   7.2980 26314.6
 13 10 2016  15 28  -15.5485 26102.3   3344.3   7.3012 26315.7
 13 10 2016  15 29  -15.5492 26101.1   3345.2   7.3035 26314.6
 13 10 2016  15 30  -15.5504 26099.6   3345.2   7.3037 26313.1
 13 10 2016  15 31  -15.5516 26097.3   3345.0   7.3039 26310.8
 13 10 2016  15 32  -15.5528 26094.8   3343.8   7.3022 26308.2
 13 10 2016  15 33  -15.5554 26091.8   3343.1   7.3014 26305.1
 13 10 2016  15 34  -15.5559 26089.4   3344.6   7.3053 26302.9
 13 10 2016  15 35  -15.5578 26086.7   3344.7   7.3062 26300.3
 13 10 2016  15 36  -15.5593 26083.9   3345.4   7.3087 26297.6
 13 10 2016  15 37  -15.5592 26082.1   3346.3   7.3110 26295.9
 13 10 2016  15 38  -15.5600 26079.5   3347.0   7.3134 26293.4
 13 10 2016  15 39  -15.5595 26078.1   3349.2   7.3183 26292.3
 13 10 2016  15 40  -15.5591 26078.1   3351.3   7.3230 26292.5
 13 10 2016  15 41  -15.5601 26078.2   3351.6   7.3236 26292.7
 13 10 2016  15 42  -15.5596 26077.5   3352.5   7.3258 26292.1
 13 10 2016  15 43  -15.5594 26078.5   3353.6   7.3279 26293.3
 13 10 2016  15 44  -15.5589 26080.2   3355.3   7.3311 26295.1
 13 10 2016  15 45  -15.5605 26080.0   3355.1   7.3306 26295.0
 13 10 2016  15 46  -15.5600 26078.9   3353.0   7.3265 26293.6
 13 10 2016  15 47  -15.5601 26077.9   3353.2   7.3272 26292.6
 13 10 2016  15 48  -15.5600 26076.6   3352.5   7.3260 26291.2
 13 10 2016  15 49  -15.5603 26075.7   3352.6   7.3265 26290.4
 13 10 2016  15 50  -15.5598 26076.1   3353.7   7.3287 26290.9
 13 10 2016  15 51  -15.5598 26076.3   3354.0   7.3292 26291.1
 13 10 2016  15 52  -15.5590 26075.8   3353.6   7.3286 26290.6
 13 10 2016  15 53  -15.5591 26076.0   3352.8   7.3268 26290.7
 13 10 2016  15 54  -15.5574 26077.2   3354.2   7.3295 26292.1
 13 10 2016  15 55  -15.5572 26077.2   3354.7   7.3306 26292.1
 13 10 2016  15 56  -15.5563 26078.4   3353.7   7.3280 26293.2
 13 10 2016  15 57  -15.5559 26079.4   3353.4   7.3272 26294.1
 13 10 2016  15 58  -15.5546 26083.5   3354.7   7.3288 26298.3
 13 10 2016  15 59  -15.5520 26086.6   3355.0   7.3287 26301.5
 13 10 2016  16 00  -15.5519 26088.1   3353.4   7.3247 26302.7
 13 10 2016  16 01  -15.5514 26089.7   3351.6   7.3205 26304.1
 13 10 2016  16 02  -15.5503 26092.8   3351.3   7.3189 26307.2
 13 10 2016  16 03  -15.5507 26096.4   3350.7   7.3166 26310.7
 13 10 2016  16 04  -15.5512 26096.8   3349.5   7.3140 26310.8
 13 10 2016  16 05  -15.5528 26096.7   3346.5   7.3075 26310.4
 13 10 2016  16 06  -15.5525 26097.7   3346.4   7.3070 26311.4
 13 10 2016  16 07  -15.5537 26098.1   3343.9   7.3014 26311.5
 13 10 2016  16 08  -15.5548 26097.7   3343.1   7.2998 26311.0
 13 10 2016  16 09  -15.5555 26096.7   3341.3   7.2963 26309.8
 13 10 2016  16 10  -15.5562 26096.1   3339.8   7.2932 26308.9
 13 10 2016  16 11  -15.5569 26094.1   3338.6   7.2912 26306.8
 13 10 2016  16 12  -15.5556 26091.5   3339.1   7.2928 26304.3
 13 10 2016  16 13  -15.5564 26088.3   3336.9   7.2891 26300.8
 13 10 2016  16 14  -15.5568 26086.8   3337.9   7.2916 26299.5
 13 10 2016  16 15  -15.5572 26086.4   3337.5   7.2908 26299.0
 13 10 2016  16 16  -15.5584 26085.8   3338.0   7.2921 26298.5
 13 10 2016  16 17  -15.5589 26084.9   3338.9   7.2943 26297.7
 13 10 2016  16 18  -15.5594 26083.7   3339.0   7.2947 26296.5
 13 10 2016  16 19  -15.5597 26082.8   3339.8   7.2967 26295.8
 13 10 2016  16 20  -15.5587 26083.5   3340.3   7.2978 26296.5
 13 10 2016  16 21  -15.5601 26083.2   3339.9   7.2968 26296.2
 13 10 2016  16 22  -15.5600 26081.7   3339.9   7.2974 26294.7
 13 10 2016  16 23  -15.5601 26080.6   3338.6   7.2949 26293.4
 13 10 2016  16 24  -15.5606 26078.7   3339.3   7.2969 26291.6
 13 10 2016  16 25  -15.5611 26075.9   3337.1   7.2929 26288.6
 13 10 2016  16 26  -15.5613 26071.9   3337.5   7.2949 26284.7
 13 10 2016  16 27  -15.5631 26068.2   3337.1   7.2950 26281.0
 13 10 2016  16 28  -15.5629 26065.9   3339.0   7.2997 26278.8
 13 10 2016  16 29  -15.5636 26063.4   3339.0   7.3005 26276.4
 13 10 2016  16 30  -15.5645 26061.5   3340.5   7.3042 26274.7
 13 10 2016  16 31  -15.5653 26061.0   3342.0   7.3076 26274.4
 13 10 2016  16 32  -15.5656 26060.8   3343.3   7.3104 26274.4
 13 10 2016  16 33  -15.5654 26060.6   3344.3   7.3126 26274.3
 13 10 2016  16 34  -15.5660 26060.1   3344.3   7.3127 26273.8
 13 10 2016  16 35  -15.5671 26058.2   3344.1   7.3128 26271.9
 13 10 2016  16 36  -15.5679 26059.2   3345.8   7.3162 26273.1
 13 10 2016  16 37  -15.5691 26060.2   3347.2   7.3191 26274.3
 13 10 2016  16 38  -15.5704 26061.4   3347.7   7.3197 26275.6
 13 10 2016  16 39  -15.5712 26063.0   3347.2   7.3183 26277.0
 13 10 2016  16 40  -15.5721 26061.6   3346.5   7.3171 26275.6
 13 10 2016  16 41  -15.5735 26060.5   3345.8   7.3160 26274.4
 13 10 2016  16 42  -15.5719 26060.8   3346.6   7.3175 26274.8
 13 10 2016  16 43  -15.5711 26060.9   3348.2   7.3209 26275.1
 13 10 2016  16 44  -15.5697 26062.0   3349.4   7.3234 26276.4
 13 10 2016  16 45  -15.5690 26065.1   3350.1   7.3240 26279.5
 13 10 2016  16 46  -15.5686 26067.2   3350.0   7.3232 26281.5
 13 10 2016  16 47  -15.5669 26069.4   3350.9   7.3245 26283.9
 13 10 2016  16 48  -15.5655 26071.8   3351.5   7.3252 26286.3
 13 10 2016  16 49  -15.5645 26074.4   3350.6   7.3225 26288.8
 13 10 2016  16 50  -15.5643 26076.6   3350.3   7.3213 26290.9
 13 10 2016  16 51  -15.5626 26077.9   3349.5   7.3191 26292.2
 13 10 2016  16 52  -15.5624 26077.5   3348.1   7.3162 26291.6
 13 10 2016  16 53  -15.5618 26075.6   3347.3   7.3150 26289.6
 13 10 2016  16 54  -15.5613 26073.7   3345.6   7.3119 26287.5
 13 10 2016  16 55  -15.5612 26071.1   3344.8   7.3108 26284.8
 13 10 2016  16 56  -15.5608 26069.0   3345.5   7.3129 26282.8
 13 10 2016  16 57  -15.5604 26067.0   3345.7   7.3139 26280.8
 13 10 2016  16 58  -15.5607 26064.0   3345.7   7.3147 26277.8
 13 10 2016  16 59  -15.5602 26061.0   3345.6   7.3154 26274.9
 13 10 2016  17 00  -15.5603 26059.2   3346.9   7.3187 26273.2
 13 10 2016  17 01  -15.5603 26057.8   3348.2   7.3218 26272.0
 13 10 2016  17 02  -15.5602 26057.1   3349.1   7.3241 26271.4
 13 10 2016  17 03  -15.5611 26056.7   3349.9   7.3258 26271.1
 13 10 2016  17 04  -15.5605 26055.4   3351.0   7.3285 26270.0
 13 10 2016  17 05  -15.5584 26054.5   3352.0   7.3311 26269.3
 13 10 2016  17 06  -15.5584 26052.1   3351.2   7.3299 26266.7
 13 10 2016  17 07  -15.5580 26049.1   3351.5   7.3314 26263.9
 13 10 2016  17 08  -15.5580 26047.6   3353.1   7.3354 26262.5
 13 10 2016  17 09  -15.5582 26046.4   3355.3   7.3404 26261.6
 13 10 2016  17 10  -15.5569 26045.5   3358.1   7.3466 26261.1
 13 10 2016  17 11  -15.5567 26045.1   3358.9   7.3485 26260.8
 13 10 2016  17 12  -15.5558 26043.8   3359.0   7.3492 26259.5
 13 10 2016  17 13  -15.5560 26042.1   3359.8   7.3515 26258.0
 13 10 2016  17 14  -15.5541 26040.8   3360.2   7.3526 26256.7
 13 10 2016  17 15  -15.5524 26040.4   3362.8   7.3583 26256.7
 13 10 2016  17 16  -15.5513 26041.2   3363.4   7.3593 26257.5
 13 10 2016  17 17  -15.5513 26040.2   3364.3   7.3617 26256.7
 13 10 2016  17 18  -15.5498 26038.8   3365.0   7.3635 26255.3
 13 10 2016  17 19  -15.5481 26039.1   3365.8   7.3652 26255.7
 13 10 2016  17 20  -15.5453 26040.6   3369.0   7.3716 26257.7
 13 10 2016  17 21  -15.5445 26041.2   3369.9   7.3735 26258.4
 13 10 2016  17 22  -15.5457 26042.3   3370.5   7.3745 26259.5
 13 10 2016  17 23  -15.5438 26043.2   3370.3   7.3737 26260.4
 13 10 2016  17 24  -15.5440 26043.2   3371.9   7.3772 26260.6
 13 10 2016  17 25  -15.5436 26044.3   3370.8   7.3745 26261.5
 13 10 2016  17 26  -15.5429 26045.0   3371.5   7.3759 26262.3
 13 10 2016  17 27  -15.5431 26045.7   3371.9   7.3765 26263.1
 13 10 2016  17 28  -15.5420 26046.2   3371.7   7.3759 26263.5
 13 10 2016  17 29  -15.5415 26046.8   3373.2   7.3789 26264.3
 13 10 2016  17 30  -15.5396 26047.0   3373.0   7.3785 26264.5
 13 10 2016  17 31  -15.5393 26045.5   3371.0   7.3747 26262.7
 13 10 2016  17 32  -15.5369 26043.4   3371.1   7.3754 26260.7
 13 10 2016  17 33  -15.5368 26039.5   3368.2   7.3703 26256.4
 13 10 2016  17 34  -15.5341 26037.1   3368.8   7.3722 26254.1
 13 10 2016  17 35  -15.5324 26034.4   3371.1   7.3779 26251.8
 13 10 2016  17 36  -15.5332 26033.2   3370.0   7.3760 26250.4
 13 10 2016  17 37  -15.5337 26031.5   3370.9   7.3783 26248.8
 13 10 2016  17 38  -15.5314 26032.2   3373.4   7.3835 26249.9
 13 10 2016  17 39  -15.5311 26032.0   3375.5   7.3882 26249.9
 13 10 2016  17 40  -15.5316 26030.5   3374.9   7.3873 26248.3
 13 10 2016  17 41  -15.5314 26030.0   3374.9   7.3875 26247.9
 13 10 2016  17 42  -15.5315 26030.1   3376.3   7.3904 26248.1
 13 10 2016  17 43  -15.5304 26032.1   3376.1   7.3894 26250.1
 13 10 2016  17 44  -15.5310 26033.2   3376.4   7.3897 26251.2
 13 10 2016  17 45  -15.5307 26032.6   3377.4   7.3921 26250.8
 13 10 2016  17 46  -15.5314 26032.2   3375.8   7.3887 26250.2
 13 10 2016  17 47  -15.5328 26030.2   3376.1   7.3901 26248.2
 13 10 2016  17 48  -15.5321 26029.5   3376.6   7.3912 26247.6
 13 10 2016  17 49  -15.5338 26028.5   3375.0   7.3881 26246.4
 13 10 2016  17 50  -15.5333 26027.9   3375.8   7.3899 26245.9
 13 10 2016  17 51  -15.5340 26027.2   3376.6   7.3919 26245.4
 13 10 2016  17 52  -15.5345 26027.1   3375.9   7.3904 26245.1
 13 10 2016  17 53  -15.5344 26027.7   3376.3   7.3912 26245.8
 13 10 2016  17 54  -15.5351 26028.1   3377.4   7.3935 26246.3
 13 10 2016  17 55  -15.5359 26028.4   3377.5   7.3936 26246.7
 13 10 2016  17 56  -15.5365 26028.4   3377.7   7.3940 26246.6
 13 10 2016  17 57  -15.5376 26028.4   3377.5   7.3936 26246.7
 13 10 2016  17 58  -15.5379 26029.2   3378.3   7.3950 26247.5
 13 10 2016  17 59  -15.5387 26029.6   3378.5   7.3952 26247.9
 13 10 2016  18 00  -15.5387 26029.9   3378.3   7.3949 26248.2
 13 10 2016  18 01  -15.5392 26030.3   3377.4   7.3929 26248.5
 13 10 2016  18 02  -15.5400 26030.6   3378.1   7.3941 26248.9
 13 10 2016  18 03  -15.5395 26030.2   3378.2   7.3946 26248.5
 13 10 2016  18 04  -15.5384 26030.1   3377.1   7.3923 26248.2
 13 10 2016  18 05  -15.5383 26030.1   3378.6   7.3954 26248.4
 13 10 2016  18 06  -15.5386 26030.2   3377.2   7.3923 26248.4
 13 10 2016  18 07  -15.5384 26030.6   3379.2   7.3965 26249.0
 13 10 2016  18 08  -15.5373 26030.5   3379.1   7.3965 26248.9
 13 10 2016  18 09  -15.5372 26030.5   3378.0   7.3941 26248.7
 13 10 2016  18 10  -15.5362 26030.3   3376.9   7.3916 26248.4
 13 10 2016  18 11  -15.5364 26029.8   3377.8   7.3937 26248.1
 13 10 2016  18 12  -15.5379 26029.1   3377.4   7.3930 26247.3
 13 10 2016  18 13  -15.5381 26028.3   3378.0   7.3947 26246.6
 13 10 2016  18 14  -15.5397 26027.2   3377.3   7.3935 26245.4
 13 10 2016  18 15  -15.5392 26026.3   3377.5   7.3941 26244.6
 13 10 2016  18 16  -15.5398 26024.6   3378.1   7.3960 26242.9
 13 10 2016  18 17  -15.5407 26023.6   3378.2   7.3963 26241.9
 13 10 2016  18 18  -15.5401 26023.1   3379.0   7.3982 26241.6
 13 10 2016  18 19  -15.5398 26023.6   3380.6   7.4016 26242.3
 13 10 2016  18 20  -15.5411 26023.8   3381.0   7.4024 26242.5
 13 10 2016  18 21  -15.5402 26023.9   3381.0   7.4024 26242.7
 13 10 2016  18 22  -15.5401 26024.4   3382.8   7.4060 26243.4
 13 10 2016  18 23  -15.5418 26023.6   3381.3   7.4032 26242.3
 13 10 2016  18 24  -15.5408 26023.2   3381.8   7.4043 26242.0
 13 10 2016  18 25  -15.5409 26022.6   3380.9   7.4024 26241.3
 13 10 2016  18 26  -15.5395 26022.3   3382.7   7.4065 26241.2
 13 10 2016  18 27  -15.5405 26021.5   3382.8   7.4068 26240.5
 13 10 2016  18 28  -15.5402 26021.4   3383.5   7.4085 26240.4
 13 10 2016  18 29  -15.5417 26020.8   3383.3   7.4082 26239.8
 13 10 2016  18 30  -15.5420 26021.1   3383.0   7.4075 26240.1
 13 10 2016  18 31  -15.5416 26020.9   3385.3   7.4125 26240.2
 13 10 2016  18 32  -15.5417 26020.9   3384.3   7.4103 26240.0
 13 10 2016  18 33  -15.5422 26019.7   3384.4   7.4110 26238.8
 13 10 2016  18 34  -15.5419 26018.2   3383.5   7.4094 26237.3
 13 10 2016  18 35  -15.5410 26017.5   3384.5   7.4118 26236.7
 13 10 2016  18 36  -15.5400 26017.4   3386.3   7.4156 26236.8
 13 10 2016  18 37  -15.5397 26017.6   3386.1   7.4152 26237.0
 13 10 2016  18 38  -15.5405 26018.3   3386.5   7.4159 26237.8
 13 10 2016  18 39  -15.5404 26018.6   3387.8   7.4186 26238.2
 13 10 2016  18 40  -15.5396 26018.5   3388.4   7.4198 26238.3
 13 10 2016  18 41  -15.5395 26018.4   3387.9   7.4189 26238.1
 13 10 2016  18 42  -15.5400 26018.4   3387.5   7.4179 26238.0
 13 10 2016  18 43  -15.5394 26018.0   3388.1   7.4193 26237.7
 13 10 2016  18 44  -15.5392 26017.4   3388.7   7.4209 26237.1
 13 10 2016  18 45  -15.5388 26017.2   3388.6   7.4207 26236.9
 13 10 2016  18 46  -15.5380 26017.7   3389.1   7.4216 26237.5
 13 10 2016  18 47  -15.5387 26018.1   3388.3   7.4197 26237.8
 13 10 2016  18 48  -15.5391 26018.1   3388.1   7.4195 26237.8
 13 10 2016  18 49  -15.5396 26017.8   3388.3   7.4199 26237.5
 13 10 2016  18 50  -15.5390 26017.6   3389.4   7.4224 26237.4
 13 10 2016  18 51  -15.5380 26018.0   3389.3   7.4219 26237.8
 13 10 2016  18 52  -15.5371 26017.2   3388.8   7.4212 26237.0
 13 10 2016  18 53  -15.5361 26016.5   3389.2   7.4222 26236.3
 13 10 2016  18 54  -15.5352 26015.8   3387.9   7.4195 26235.4
 13 10 2016  18 55  -15.5355 26015.3   3386.7   7.4172 26234.8
 13 10 2016  18 56  -15.5339 26014.6   3388.0   7.4202 26234.3
 13 10 2016  18 57  -15.5342 26014.5   3387.7   7.4195 26234.2
 13 10 2016  18 58  -15.5339 26013.8   3387.5   7.4193 26233.5
 13 10 2016  18 59  -15.5328 26013.0   3385.9   7.4160 26232.5
 13 10 2016  19 00  -15.5337 26010.9   3384.4   7.4134 26230.1
 13 10 2016  19 01  -15.5333 26009.4   3384.1   7.4131 26228.7
 13 10 2016  19 02  -15.5334 26007.3   3383.4   7.4122 26226.5
 13 10 2016  19 03  -15.5329 26007.5   3383.6   7.4126 26226.7
 13 10 2016  19 04  -15.5319 26008.1   3384.6   7.4147 26227.4
 13 10 2016  19 05  -15.5327 26008.0   3385.1   7.4157 26227.4
 13 10 2016  19 06  -15.5336 26006.6   3384.0   7.4137 26225.9
 13 10 2016  19 07  -15.5347 26006.1   3381.8   7.4092 26225.1
 13 10 2016  19 08  -15.5348 26004.7   3380.5   7.4068 26223.5
 13 10 2016  19 09  -15.5342 26004.7   3382.2   7.4103 26223.7
 13 10 2016  19 10  -15.5349 26004.3   3381.1   7.4080 26223.1
 13 10 2016  19 11  -15.5348 26002.5   3382.5   7.4116 26221.6
 13 10 2016  19 12  -15.5366 25999.4   3381.6   7.4106 26218.4
 13 10 2016  19 13  -15.5381 25997.8   3380.3   7.4082 26216.6
 13 10 2016  19 14  -15.5390 25996.3   3382.1   7.4126 26215.4
 13 10 2016  19 15  -15.5407 25995.2   3382.9   7.4145 26214.4
 13 10 2016  19 16  -15.5427 25994.4   3382.5   7.4140 26213.6
 13 10 2016  19 17  -15.5435 25994.3   3384.2   7.4177 26213.7
 13 10 2016  19 18  -15.5435 25994.5   3384.2   7.4175 26213.9
 13 10 2016  19 19  -15.5418 25994.7   3385.9   7.4212 26214.2
 13 10 2016  19 20  -15.5418 25994.8   3387.3   7.4241 26214.5
 13 10 2016  19 21  -15.5424 25994.8   3387.2   7.4240 26214.6
 13 10 2016  19 22  -15.5428 25995.5   3387.4   7.4242 26215.3
 13 10 2016  19 23  -15.5432 25996.1   3389.0   7.4274 26216.1
 13 10 2016  19 24  -15.5438 25996.2   3388.0   7.4254 26216.1
 13 10 2016  19 25  -15.5446 25996.5   3390.2   7.4300 26216.6
 13 10 2016  19 26  -15.5458 25997.0   3390.5   7.4304 26217.2
 13 10 2016  19 27  -15.5473 25996.4   3389.2   7.4280 26216.4
 13 10 2016  19 28  -15.5474 25996.6   3390.9   7.4316 26216.8
 13 10 2016  19 29  -15.5500 25996.5   3390.4   7.4304 26216.6
 13 10 2016  19 30  -15.5527 25996.1   3390.0   7.4297 26216.2
 13 10 2016  19 31  -15.5533 25995.9   3391.7   7.4334 26216.2
 13 10 2016  19 32  -15.5546 25995.7   3392.6   7.4355 26216.1
 13 10 2016  19 33  -15.5554 25995.7   3391.9   7.4339 26216.1
 13 10 2016  19 34  -15.5545 25997.3   3394.1   7.4382 26217.9
 13 10 2016  19 35  -15.5536 25998.9   3394.8   7.4394 26219.6
 13 10 2016  19 36  -15.5528 26001.0   3395.8   7.4409 26221.8
 13 10 2016  19 37  -15.5541 26002.0   3396.4   7.4419 26222.9
 13 10 2016  19 38  -15.5553 26002.7   3395.4   7.4396 26223.4
 13 10 2016  19 39  -15.5547 26004.0   3396.9   7.4425 26224.9
 13 10 2016  19 40  -15.5559 26005.0   3396.5   7.4413 26225.9
 13 10 2016  19 41  -15.5558 26005.4   3397.2   7.4426 26226.3
 13 10 2016  19 42  -15.5559 26006.1   3398.4   7.4451 26227.2
 13 10 2016  19 43  -15.5565 26006.5   3398.4   7.4449 26227.6
 13 10 2016  19 44  -15.5564 26006.2   3398.4   7.4449 26227.3
 13 10 2016  19 45  -15.5558 26006.2   3398.6   7.4454 26227.3
 13 10 2016  19 46  -15.5551 26006.1   3399.2   7.4468 26227.4
 13 10 2016  19 47  -15.5546 26006.0   3399.6   7.4478 26227.3
 13 10 2016  19 48  -15.5550 26005.7   3399.9   7.4483 26227.0
 13 10 2016  19 49  -15.5542 26006.7   3401.2   7.4509 26228.2
 13 10 2016  19 50  -15.5542 26007.4   3401.7   7.4518 26228.9
 13 10 2016  19 51  -15.5546 26007.1   3401.7   7.4519 26228.6
 13 10 2016  19 52  -15.5538 26007.8   3402.5   7.4535 26229.4
 13 10 2016  19 53  -15.5540 26008.3   3403.0   7.4543 26230.0
 13 10 2016  19 54  -15.5539 26008.2   3402.8   7.4540 26229.9
 13 10 2016  19 55  -15.5538 26007.3   3402.8   7.4542 26229.0
 13 10 2016  19 56  -15.5541 26006.4   3402.6   7.4541 26228.0
 13 10 2016  19 57  -15.5539 26005.3   3402.8   7.4549 26227.0
 13 10 2016  19 58  -15.5535 26004.9   3403.6   7.4566 26226.7
 13 10 2016  19 59  -15.5537 26004.6   3404.0   7.4576 26226.4
 13 10 2016  20 00  -15.5530 26004.8   3404.6   7.4589 26226.8
 13 10 2016  20 01  -15.5539 26005.9   3406.5   7.4626 26228.0
 13 10 2016  20 02  -15.5548 26007.3   3405.4   7.4598 26229.3
 13 10 2016  20 03  -15.5541 26007.8   3406.8   7.4628 26230.0
 13 10 2016  20 04  -15.5536 26009.1   3407.8   7.4646 26231.4
 13 10 2016  20 05  -15.5529 26010.0   3406.7   7.4619 26232.1
 13 10 2016  20 06  -15.5531 26009.3   3407.2   7.4633 26231.6
 13 10 2016  20 07  -15.5534 26009.2   3405.7   7.4599 26231.3
 13 10 2016  20 08  -15.5521 26009.4   3407.1   7.4630 26231.6
 13 10 2016  20 09  -15.5517 26009.6   3408.0   7.4648 26231.9
 13 10 2016  20 10  -15.5519 26009.5   3407.0   7.4626 26231.7
 13 10 2016  20 11  -15.5510 26009.8   3407.7   7.4642 26232.1
 13 10 2016  20 12  -15.5506 26010.0   3407.6   7.4640 26232.2
 13 10 2016  20 13  -15.5500 26010.7   3408.1   7.4648 26233.0
 13 10 2016  20 14  -15.5485 26011.2   3407.9   7.4642 26233.5
 13 10 2016  20 15  -15.5474 26011.2   3408.3   7.4651 26233.6
 13 10 2016  20 16  -15.5468 26011.4   3407.3   7.4628 26233.6
 13 10 2016  20 17  -15.5458 26011.8   3408.2   7.4647 26234.1
 13 10 2016  20 18  -15.5469 26011.5   3407.0   7.4622 26233.7
 13 10 2016  20 19  -15.5453 26012.3   3407.5   7.4631 26234.6
 13 10 2016  20 20  -15.5446 26012.9   3407.7   7.4632 26235.2
 13 10 2016  20 21  -15.5442 26013.1   3407.9   7.4637 26235.4
 13 10 2016  20 22  -15.5450 26013.1   3407.0   7.4617 26235.3
 13 10 2016  20 23  -15.5445 26013.7   3408.8   7.4655 26236.0
 13 10 2016  20 24  -15.5450 26014.4   3407.6   7.4626 26236.7
 13 10 2016  20 25  -15.5456 26014.6   3408.8   7.4652 26237.0
 13 10 2016  20 26  -15.5456 26015.3   3408.9   7.4652 26237.7
 13 10 2016  20 27  -15.5454 26015.6   3408.9   7.4650 26238.0
 13 10 2016  20 28  -15.5456 26015.4   3407.9   7.4631 26237.7
 13 10 2016  20 29  -15.5453 26015.2   3408.1   7.4634 26237.5
 13 10 2016  20 30  -15.5448 26015.2   3408.7   7.4648 26237.6
 13 10 2016  20 31  -15.5450 26015.5   3408.3   7.4638 26237.8
 13 10 2016  20 32  -15.5454 26015.7   3408.7   7.4646 26238.1
 13 10 2016  20 33  -15.5454 26015.9   3408.6   7.4644 26238.3
 13 10 2016  20 34  -15.5456 26016.6   3408.8   7.4645 26238.9
 13 10 2016  20 35  -15.5454 26017.5   3409.3   7.4655 26239.9
 13 10 2016  20 36  -15.5447 26017.9   3409.5   7.4657 26240.3
 13 10 2016  20 37  -15.5436 26018.4   3409.6   7.4659 26240.9
 13 10 2016  20 38  -15.5443 26019.1   3410.1   7.4666 26241.6
 13 10 2016  20 39  -15.5441 26020.3   3409.0   7.4640 26242.7
 13 10 2016  20 40  -15.5431 26020.9   3410.2   7.4663 26243.4
 13 10 2016  20 41  -15.5440 26021.8   3409.0   7.4635 26244.1
 13 10 2016  20 42  -15.5454 26022.3   3409.8   7.4651 26244.8
 13 10 2016  20 43  -15.5460 26023.3   3410.2   7.4657 26245.8
 13 10 2016  20 44  -15.5471 26024.1   3410.6   7.4664 26246.6
 13 10 2016  20 45  -15.5481 26025.1   3410.9   7.4668 26247.7
 13 10 2016  20 46  -15.5496 26025.5   3409.6   7.4639 26247.9
 13 10 2016  20 47  -15.5490 26025.6   3409.8   7.4642 26248.0
 13 10 2016  20 48  -15.5480 26025.5   3408.3   7.4609 26247.7
 13 10 2016  20 49  -15.5480 26025.1   3409.5   7.4636 26247.4
 13 10 2016  20 50  -15.5475 26024.6   3408.7   7.4622 26246.9
 13 10 2016  20 51  -15.5471 26023.7   3408.0   7.4609 26245.9
 13 10 2016  20 52  -15.5469 26022.2   3407.5   7.4602 26244.3
 13 10 2016  20 53  -15.5471 26020.4   3406.1   7.4577 26242.3
 13 10 2016  20 54  -15.5469 26019.0   3406.1   7.4581 26241.0
 13 10 2016  20 55  -15.5458 26018.1   3406.1   7.4584 26240.1
 13 10 2016  20 56  -15.5457 26017.1   3406.1   7.4586 26239.1
 13 10 2016  20 57  -15.5451 26016.3   3405.9   7.4584 26238.3
 13 10 2016  20 58  -15.5443 26016.1   3406.4   7.4595 26238.2
 13 10 2016  20 59  -15.5435 26016.3   3406.6   7.4600 26238.4
 13 10 2016  21 00  -15.5433 26016.4   3406.3   7.4593 26238.5
 13 10 2016  21 01  -15.5428 26016.8   3406.6   7.4599 26238.9
 13 10 2016  21 02  -15.5427 26016.9   3406.6   7.4598 26239.0
 13 10 2016  21 03  -15.5428 26016.9   3406.5   7.4596 26239.0
 13 10 2016  21 04  -15.5424 26017.3   3406.5   7.4595 26239.4
 13 10 2016  21 05  -15.5432 26017.4   3406.5   7.4594 26239.5
 13 10 2016  21 06  -15.5431 26018.0   3406.2   7.4585 26240.0
 13 10 2016  21 07  -15.5426 26018.6   3406.3   7.4585 26240.6
 13 10 2016  21 08  -15.5432 26019.1   3406.5   7.4588 26241.1
 13 10 2016  21 09  -15.5434 26019.6   3406.6   7.4590 26241.6
 13 10 2016  21 10  -15.5435 26020.2   3406.8   7.4593 26242.3
 13 10 2016  21 11  -15.5439 26020.7   3406.5   7.4584 26242.7
 13 10 2016  21 12  -15.5441 26020.7   3406.2   7.4579 26242.7
 13 10 2016  21 13  -15.5448 26020.7   3405.5   7.4564 26242.6
 13 10 2016  21 14  -15.5449 26020.8   3405.6   7.4565 26242.8
 13 10 2016  21 15  -15.5455 26020.3   3405.3   7.4560 26242.1
 13 10 2016  21 16  -15.5458 26020.1   3405.2   7.4559 26242.0
 13 10 2016  21 17  -15.5466 26020.1   3405.1   7.4555 26241.9
 13 10 2016  21 18  -15.5470 26020.2   3405.4   7.4563 26242.1
 13 10 2016  21 19  -15.5483 26021.2   3404.9   7.4549 26243.0
 13 10 2016  21 20  -15.5478 26021.8   3405.5   7.4560 26243.7
 13 10 2016  21 21  -15.5479 26021.8   3405.8   7.4567 26243.8
 13 10 2016  21 22  -15.5470 26022.0   3405.1   7.4550 26243.8
 13 10 2016  21 23  -15.5466 26021.3   3405.9   7.4570 26243.3
 13 10 2016  21 24  -15.5464 26021.2   3404.3   7.4535 26242.9
 13 10 2016  21 25  -15.5463 26020.8   3404.7   7.4545 26242.6
 13 10 2016  21 26  -15.5466 26020.3   3404.6   7.4545 26242.1
 13 10 2016  21 27  -15.5467 26020.2   3403.5   7.4520 26241.9
 13 10 2016  21 28  -15.5461 26020.1   3404.1   7.4535 26241.9
 13 10 2016  21 29  -15.5452 26020.0   3404.3   7.4539 26241.7
 13 10 2016  21 30  -15.5454 26019.3   3404.1   7.4538 26241.0
 13 10 2016  21 31  -15.5451 26018.9   3403.9   7.4534 26240.6
 13 10 2016  21 32  -15.5449 26018.7   3403.6   7.4527 26240.4
 13 10 2016  21 33  -15.5450 26018.5   3403.6   7.4528 26240.2
 13 10 2016  21 34  -15.5452 26018.4   3402.7   7.4509 26239.9
 13 10 2016  21 35  -15.5447 26018.1   3403.4   7.4525 26239.7
 13 10 2016  21 36  -15.5440 26018.2   3404.0   7.4538 26239.9
 13 10 2016  21 37  -15.5440 26018.5   3404.0   7.4537 26240.3
 13 10 2016  21 38  -15.5438 26019.1   3404.5   7.4546 26240.9
 13 10 2016  21 39  -15.5439 26019.8   3404.4   7.4543 26241.5
 13 10 2016  21 40  -15.5440 26020.1   3405.1   7.4555 26242.0
 13 10 2016  21 41  -15.5441 26020.1   3404.3   7.4538 26241.9
 13 10 2016  21 42  -15.5441 26020.4   3404.2   7.4536 26242.1
 13 10 2016  21 43  -15.5444 26020.5   3404.1   7.4533 26242.2
 13 10 2016  21 44  -15.5444 26020.6   3404.0   7.4530 26242.3
 13 10 2016  21 45  -15.5444 26020.8   3404.0   7.4529 26242.5
 13 10 2016  21 46  -15.5442 26020.9   3404.1   7.4532 26242.6
 13 10 2016  21 47  -15.5446 26020.9   3403.9   7.4528 26242.6
 13 10 2016  21 48  -15.5452 26020.7   3403.6   7.4522 26242.4
 13 10 2016  21 49  -15.5460 26020.5   3403.6   7.4523 26242.2
 13 10 2016  21 50  -15.5462 26020.8   3403.8   7.4526 26242.5
 13 10 2016  21 51  -15.5464 26020.8   3403.9   7.4529 26242.5
 13 10 2016  21 52  -15.5463 26020.9   3403.2   7.4512 26242.5
 13 10 2016  21 53  -15.5460 26021.3   3403.7   7.4523 26243.0
 13 10 2016  21 54  -15.5460 26021.5   3404.0   7.4529 26243.2
 13 10 2016  21 55  -15.5463 26021.6   3403.7   7.4522 26243.3
 13 10 2016  21 56  -15.5458 26021.6   3404.8   7.4545 26243.4
 13 10 2016  21 57  -15.5462 26021.2   3404.5   7.4540 26243.0
 13 10 2016  21 58  -15.5458 26021.2   3404.3   7.4535 26243.0
 13 10 2016  21 59  -15.5461 26020.8   3403.8   7.4525 26242.5
 13 10 2016  22 00  -15.5458 26020.3   3404.0   7.4531 26242.0
 13 10 2016  22 01  -15.5459 26020.0   3403.8   7.4527 26241.7
 13 10 2016  22 02  -15.5453 26019.7   3403.9   7.4530 26241.4
 13 10 2016  22 03  -15.5450 26019.3   3403.6   7.4527 26240.9
 13 10 2016  22 04  -15.5454 26018.7   3403.3   7.4521 26240.3
 13 10 2016  22 05  -15.5447 26018.3   3403.3   7.4522 26239.9
 13 10 2016  22 06  -15.5447 26017.7   3403.7   7.4533 26239.4
 13 10 2016  22 07  -15.5442 26017.5   3403.2   7.4523 26239.1
 13 10 2016  22 08  -15.5438 26017.3   3403.4   7.4528 26238.9
 13 10 2016  22 09  -15.5438 26016.9   3403.6   7.4532 26238.6
 13 10 2016  22 10  -15.5431 26016.7   3403.6   7.4534 26238.4
 13 10 2016  22 11  -15.5433 26016.3   3403.8   7.4539 26238.0
 13 10 2016  22 12  -15.5428 26015.9   3403.4   7.4531 26237.6
 13 10 2016  22 13  -15.5413 26015.9   3403.8   7.4541 26237.6
 13 10 2016  22 14  -15.5410 26015.6   3403.9   7.4542 26237.3
 13 10 2016  22 15  -15.5399 26015.9   3404.7   7.4560 26237.7
 13 10 2016  22 16  -15.5406 26015.9   3404.3   7.4551 26237.7
 13 10 2016  22 17  -15.5408 26015.9   3404.1   7.4546 26237.7
 13 10 2016  22 18  -15.5416 26015.6   3404.1   7.4547 26237.4
 13 10 2016  22 19  -15.5414 26015.7   3404.4   7.4554 26237.5
 13 10 2016  22 20  -15.5433 26015.2   3404.8   7.4562 26237.1
 13 10 2016  22 21  -15.5442 26015.4   3403.8   7.4541 26237.2
 13 10 2016  22 22  -15.5446 26015.4   3403.7   7.4539 26237.2
 13 10 2016  22 23  -15.5445 26015.9   3403.0   7.4523 26237.5
 13 10 2016  22 24  -15.5450 26015.9   3404.0   7.4544 26237.7
 13 10 2016  22 25  -15.5452 26015.7   3404.9   7.4564 26237.6
 13 10 2016  22 26  -15.5439 26015.9   3405.8   7.4582 26237.9
 13 10 2016  22 27  -15.5435 26016.3   3404.9   7.4561 26238.1
 13 10 2016  22 28  -15.5440 26016.2   3404.9   7.4562 26238.1
 13 10 2016  22 29  -15.5448 26016.1   3405.3   7.4572 26238.1
 13 10 2016  22 30  -15.5449 26016.6   3404.6   7.4554 26238.4
 13 10 2016  22 31  -15.5447 26016.9   3405.1   7.4565 26238.7
 13 10 2016  22 32  -15.5444 26017.4   3404.9   7.4559 26239.2
 13 10 2016  22 33  -15.5450 26017.5   3405.1   7.4563 26239.4
 13 10 2016  22 34  -15.5459 26017.8   3405.5   7.4572 26239.7
 13 10 2016  22 35  -15.5450 26018.6   3405.8   7.4575 26240.6
 13 10 2016  22 36  -15.5445 26019.0   3406.4   7.4587 26241.0
 13 10 2016  22 37  -15.5446 26018.9   3406.4   7.4587 26241.0
 13 10 2016  22 38  -15.5443 26018.9   3406.2   7.4584 26241.0
 13 10 2016  22 39  -15.5431 26019.1   3406.2   7.4583 26241.2
 13 10 2016  22 40  -15.5439 26018.6   3404.9   7.4556 26240.4
 13 10 2016  22 41  -15.5443 26017.8   3405.3   7.4566 26239.7
 13 10 2016  22 42  -15.5423 26017.5   3404.4   7.4549 26239.3
 13 10 2016  22 43  -15.5429 26016.6   3405.2   7.4567 26238.5
 13 10 2016  22 44  -15.5423 26016.0   3403.8   7.4540 26237.7
 13 10 2016  22 45  -15.5421 26014.5   3404.0   7.4547 26236.3
 13 10 2016  22 46  -15.5426 26013.0   3402.9   7.4529 26234.6
 13 10 2016  22 47  -15.5440 26011.4   3401.0   7.4492 26232.8
 13 10 2016  22 48  -15.5437 26009.7   3402.0   7.4518 26231.3
 13 10 2016  22 49  -15.5432 26008.2   3401.2   7.4506 26229.6
 13 10 2016  22 50  -15.5421 26006.3   3401.7   7.4522 26227.8
 13 10 2016  22 51  -15.5412 26004.8   3401.1   7.4512 26226.3
 13 10 2016  22 52  -15.5408 26003.7   3401.6   7.4526 26225.2
 13 10 2016  22 53  -15.5412 26002.7   3401.1   7.4519 26224.2
 13 10 2016  22 54  -15.5407 26002.1   3401.6   7.4532 26223.6
 13 10 2016  22 55  -15.5406 26001.5   3402.0   7.4542 26223.1
 13 10 2016  22 56  -15.5399 26001.0   3402.5   7.4554 26222.7
 13 10 2016  22 57  -15.5405 26001.0   3401.9   7.4541 26222.6
 13 10 2016  22 58  -15.5411 26000.6   3401.8   7.4539 26222.2
 13 10 2016  22 59  -15.5399 26000.5   3403.2   7.4571 26222.3
 13 10 2016  23 00  -15.5401 26000.9   3404.3   7.4593 26222.9
 13 10 2016  23 01  -15.5416 26001.3   3403.2   7.4569 26223.1
 13 10 2016  23 02  -15.5417 26001.4   3405.1   7.4610 26223.4
 13 10 2016  23 03  -15.5409 26001.9   3404.9   7.4604 26223.9
 13 10 2016  23 04  -15.5422 26001.9   3403.3   7.4568 26223.6
 13 10 2016  23 05  -15.5417 26002.3   3403.7   7.4576 26224.1
 13 10 2016  23 06  -15.5405 26002.8   3405.7   7.4619 26224.9
 13 10 2016  23 07  -15.5414 26003.6   3405.0   7.4601 26225.5
 13 10 2016  23 08  -15.5424 26004.5   3405.2   7.4603 26226.5
 13 10 2016  23 09  -15.5425 26005.8   3406.7   7.4631 26228.0
 13 10 2016  23 10  -15.5418 26006.8   3407.2   7.4638 26229.1
 13 10 2016  23 11  -15.5438 26007.4   3405.2   7.4593 26229.3
 13 10 2016  23 12  -15.5444 26007.8   3406.5   7.4622 26229.9
 13 10 2016  23 13  -15.5458 26008.0   3405.4   7.4596 26230.0
 13 10 2016  23 14  -15.5461 26008.5   3405.5   7.4597 26230.6
 13 10 2016  23 15  -15.5473 26008.8   3405.6   7.4599 26230.8
 13 10 2016  23 16  -15.5485 26008.7   3405.5   7.4597 26230.7
 13 10 2016  23 17  -15.5496 26008.4   3404.6   7.4579 26230.3
 13 10 2016  23 18  -15.5496 26007.9   3404.6   7.4580 26229.8
 13 10 2016  23 19  -15.5492 26007.4   3404.9   7.4587 26229.3
 13 10 2016  23 20  -15.5491 26006.8   3404.4   7.4579 26228.7
 13 10 2016  23 21  -15.5486 26006.4   3405.0   7.4592 26228.4
 13 10 2016  23 22  -15.5498 26005.0   3404.1   7.4577 26226.9
 13 10 2016  23 23  -15.5489 26003.5   3404.1   7.4582 26225.3
 13 10 2016  23 24  -15.5475 26002.2   3402.7   7.4555 26223.9
 13 10 2016  23 25  -15.5462 26000.9   3403.8   7.4582 26222.7
 13 10 2016  23 26  -15.5465 25999.7   3402.5   7.4557 26221.4
 13 10 2016  23 27  -15.5452 25998.6   3403.6   7.4584 26220.4
 13 10 2016  23 28  -15.5453 25997.9   3402.8   7.4569 26219.7
 13 10 2016  23 29  -15.5451 25997.6   3403.4   7.4583 26219.5
 13 10 2016  23 30  -15.5452 25997.8   3403.9   7.4593 26219.7
 13 10 2016  23 31  -15.5453 25997.8   3404.1   7.4598 26219.7
 13 10 2016  23 32  -15.5456 25998.2   3404.5   7.4604 26220.2
 13 10 2016  23 33  -15.5460 25998.6   3404.9   7.4612 26220.6
 13 10 2016  23 34  -15.5465 25998.7   3404.6   7.4606 26220.7
 13 10 2016  23 35  -15.5469 25998.1   3404.3   7.4602 26220.0
 13 10 2016  23 36  -15.5486 25997.3   3404.1   7.4599 26219.2
 13 10 2016  23 37  -15.5480 25997.3   3404.0   7.4597 26219.2
 13 10 2016  23 38  -15.5492 25996.9   3403.8   7.4593 26218.8
 13 10 2016  23 39  -15.5492 25996.9   3405.2   7.4625 26219.0
 13 10 2016  23 40  -15.5484 25997.5   3405.6   7.4631 26219.6
 13 10 2016  23 41  -15.5490 25997.9   3405.2   7.4620 26220.0
 13 10 2016  23 42  -15.5478 25998.9   3406.4   7.4644 26221.1
 13 10 2016  23 43  -15.5493 25999.9   3406.0   7.4632 26222.0
 13 10 2016  23 44  -15.5477 26001.6   3405.5   7.4617 26223.7
 13 10 2016  23 45  -15.5463 26002.7   3408.3   7.4674 26225.1
 13 10 2016  23 46  -15.5455 26003.7   3408.3   7.4673 26226.1
 13 10 2016  23 47  -15.5457 26004.5   3409.1   7.4686 26227.0
 13 10 2016  23 48  -15.5453 26005.8   3408.3   7.4666 26228.2
 13 10 2016  23 49  -15.5459 26007.1   3406.4   7.4621 26229.2
 13 10 2016  23 50  -15.5457 26008.1   3407.0   7.4630 26230.3
 13 10 2016  23 51  -15.5443 26009.4   3409.1   7.4674 26231.9
 13 10 2016  23 52  -15.5447 26010.7   3408.1   7.4647 26233.0
 13 10 2016  23 53  -15.5439 26011.8   3409.5   7.4675 26234.3
 13 10 2016  23 54  -15.5448 26012.9   3408.9   7.4658 26235.3
 13 10 2016  23 55  -15.5451 26014.4   3408.7   7.4650 26236.7
 13 10 2016  23 56  -15.5451 26016.2   3409.3   7.4659 26238.6
 13 10 2016  23 57  -15.5463 26017.5   3408.6   7.4639 26239.8
 13 10 2016  23 58  -15.5470 26018.3   3408.8   7.4641 26240.6
 13 10 2016  23 59  -15.5463 26019.3   3408.9   7.4640 26241.6
