Manaus - AM                    UNIVAP-03  <288> 1 Min. Reported data

 DD MM YYYY  HH MM   D(Deg)  H(nT)   Z(nT)   I(Deg)   F(nT)

 14 10 2016  00 00  -15.5454 26020.6   3409.0   7.4638 26243.0
 14 10 2016  00 01  -15.5449 26021.7   3409.0   7.4635 26244.0
 14 10 2016  00 02  -15.5457 26022.5   3408.3   7.4619 26244.8
 14 10 2016  00 03  -15.5456 26023.4   3408.2   7.4615 26245.6
 14 10 2016  00 04  -15.5452 26024.3   3408.0   7.4608 26246.5
 14 10 2016  00 05  -15.5447 26025.0   3408.4   7.4614 26247.3
 14 10 2016  00 06  -15.5447 26025.6   3408.3   7.4609 26247.8
 14 10 2016  00 07  -15.5445 26026.2   3407.7   7.4594 26248.4
 14 10 2016  00 08  -15.5443 26026.6   3407.6   7.4591 26248.8
 14 10 2016  00 09  -15.5440 26027.0   3407.9   7.4598 26249.2
 14 10 2016  00 10  -15.5441 26027.7   3407.9   7.4596 26249.9
 14 10 2016  00 11  -15.5436 26028.4   3408.1   7.4598 26250.6
 14 10 2016  00 12  -15.5443 26028.8   3407.4   7.4581 26250.9
 14 10 2016  00 13  -15.5438 26029.5   3407.6   7.4583 26251.6
 14 10 2016  00 14  -15.5434 26030.2   3407.7   7.4583 26252.3
 14 10 2016  00 15  -15.5434 26030.8   3407.9   7.4586 26253.0
 14 10 2016  00 16  -15.5439 26031.6   3407.5   7.4576 26253.7
 14 10 2016  00 17  -15.5447 26032.0   3407.2   7.4568 26254.1
 14 10 2016  00 18  -15.5439 26032.9   3407.3   7.4567 26255.0
 14 10 2016  00 19  -15.5441 26033.3   3407.7   7.4576 26255.3
 14 10 2016  00 20  -15.5441 26033.9   3406.9   7.4555 26255.9
 14 10 2016  00 21  -15.5443 26034.0   3407.2   7.4561 26256.1
 14 10 2016  00 22  -15.5441 26034.0   3407.4   7.4566 26256.0
 14 10 2016  00 23  -15.5449 26034.2   3406.6   7.4548 26256.1
 14 10 2016  00 24  -15.5449 26034.4   3406.5   7.4547 26256.3
 14 10 2016  00 25  -15.5452 26034.6   3406.4   7.4543 26256.5
 14 10 2016  00 26  -15.5456 26034.5   3406.3   7.4542 26256.4
 14 10 2016  00 27  -15.5453 26035.0   3406.3   7.4540 26256.9
 14 10 2016  00 28  -15.5453 26035.2   3406.3   7.4538 26257.1
 14 10 2016  00 29  -15.5446 26035.4   3407.0   7.4553 26257.4
 14 10 2016  00 30  -15.5446 26035.7   3407.0   7.4552 26257.7
 14 10 2016  00 31  -15.5451 26036.0   3406.1   7.4533 26257.8
 14 10 2016  00 32  -15.5450 26036.0   3406.5   7.4541 26257.9
 14 10 2016  00 33  -15.5457 26036.2   3405.7   7.4523 26258.0
 14 10 2016  00 34  -15.5457 26036.1   3406.3   7.4537 26258.0
 14 10 2016  00 35  -15.5460 26036.3   3406.2   7.4534 26258.1
 14 10 2016  00 36  -15.5469 26035.9   3405.9   7.4529 26257.8
 14 10 2016  00 37  -15.5468 26036.1   3405.1   7.4511 26257.8
 14 10 2016  00 38  -15.5460 26036.0   3405.6   7.4522 26257.8
 14 10 2016  00 39  -15.5448 26036.0   3407.1   7.4554 26257.9
 14 10 2016  00 40  -15.5443 26036.2   3405.9   7.4527 26258.0
 14 10 2016  00 41  -15.5448 26036.3   3404.8   7.4503 26258.0
 14 10 2016  00 42  -15.5454 26036.2   3405.3   7.4515 26257.9
 14 10 2016  00 43  -15.5457 26035.8   3405.2   7.4513 26257.5
 14 10 2016  00 44  -15.5452 26035.9   3405.0   7.4509 26257.6
 14 10 2016  00 45  -15.5448 26035.5   3405.1   7.4512 26257.3
 14 10 2016  00 46  -15.5439 26035.4   3404.9   7.4509 26257.1
 14 10 2016  00 47  -15.5421 26035.5   3405.9   7.4529 26257.3
 14 10 2016  00 48  -15.5436 26035.3   3404.4   7.4498 26256.9
 14 10 2016  00 49  -15.5420 26035.4   3404.5   7.4501 26257.1
 14 10 2016  00 50  -15.5420 26035.4   3404.8   7.4507 26257.1
 14 10 2016  00 51  -15.5422 26035.1   3406.0   7.4533 26256.9
 14 10 2016  00 52  -15.5435 26034.9   3404.6   7.4502 26256.6
 14 10 2016  00 53  -15.5430 26035.1   3405.5   7.4522 26256.9
 14 10 2016  00 54  -15.5408 26035.7   3405.5   7.4520 26257.5
 14 10 2016  00 55  -15.5421 26035.4   3404.2   7.4493 26257.0
 14 10 2016  00 56  -15.5417 26035.3   3404.9   7.4509 26257.0
 14 10 2016  00 57  -15.5408 26035.6   3405.5   7.4520 26257.4
 14 10 2016  00 58  -15.5409 26035.6   3405.9   7.4530 26257.5
 14 10 2016  00 59  -15.5406 26036.0   3405.9   7.4529 26257.8
 14 10 2016  01 00  -15.5415 26036.0   3405.5   7.4519 26257.8
 14 10 2016  01 01  -15.5417 26036.2   3405.3   7.4514 26258.0
 14 10 2016  01 02  -15.5412 26036.7   3405.4   7.4515 26258.5
 14 10 2016  01 03  -15.5410 26037.3   3405.4   7.4514 26259.0
 14 10 2016  01 04  -15.5399 26038.0   3405.8   7.4521 26259.8
 14 10 2016  01 05  -15.5414 26038.0   3405.3   7.4509 26259.8
 14 10 2016  01 06  -15.5394 26039.0   3406.6   7.4534 26260.9
 14 10 2016  01 07  -15.5390 26040.0   3405.7   7.4514 26261.8
 14 10 2016  01 08  -15.5392 26040.3   3405.4   7.4506 26262.0
 14 10 2016  01 09  -15.5371 26041.3   3406.5   7.4526 26263.1
 14 10 2016  01 10  -15.5348 26044.0   3407.0   7.4529 26265.9
 14 10 2016  01 11  -15.5343 26045.8   3409.0   7.4567 26268.0
 14 10 2016  01 12  -15.5331 26050.8   3410.2   7.4579 26273.1
 14 10 2016  01 13  -15.5285 26057.5   3413.6   7.4634 26280.1
 14 10 2016  01 14  -15.5258 26064.1   3414.5   7.4635 26286.8
 14 10 2016  01 15  -15.5220 26070.3   3417.1   7.4672 26293.3
 14 10 2016  01 16  -15.5223 26074.0   3415.0   7.4618 26296.7
 14 10 2016  01 17  -15.5208 26077.5   3415.5   7.4619 26300.2
 14 10 2016  01 18  -15.5207 26079.8   3415.3   7.4608 26302.5
 14 10 2016  01 19  -15.5215 26081.6   3412.6   7.4544 26304.0
 14 10 2016  01 20  -15.5217 26083.3   3412.6   7.4539 26305.6
 14 10 2016  01 21  -15.5242 26085.4   3412.0   7.4521 26307.6
 14 10 2016  01 22  -15.5279 26086.7   3410.7   7.4489 26308.8
 14 10 2016  01 23  -15.5305 26087.4   3409.4   7.4459 26309.2
 14 10 2016  01 24  -15.5315 26088.8   3411.0   7.4490 26310.9
 14 10 2016  01 25  -15.5346 26089.7   3408.9   7.4441 26311.4
 14 10 2016  01 26  -15.5374 26090.0   3407.6   7.4413 26311.6
 14 10 2016  01 27  -15.5398 26089.5   3407.1   7.4404 26311.0
 14 10 2016  01 28  -15.5411 26088.9   3406.7   7.4396 26310.4
 14 10 2016  01 29  -15.5420 26087.8   3405.2   7.4366 26309.1
 14 10 2016  01 30  -15.5432 26086.0   3404.6   7.4359 26307.2
 14 10 2016  01 31  -15.5437 26084.5   3403.1   7.4332 26305.5
 14 10 2016  01 32  -15.5432 26083.3   3403.1   7.4334 26304.4
 14 10 2016  01 33  -15.5432 26082.0   3402.5   7.4325 26303.0
 14 10 2016  01 34  -15.5438 26080.8   3402.3   7.4324 26301.8
 14 10 2016  01 35  -15.5443 26079.7   3403.5   7.4353 26300.9
 14 10 2016  01 36  -15.5436 26079.2   3402.0   7.4322 26300.2
 14 10 2016  01 37  -15.5419 26078.1   3403.9   7.4365 26299.3
 14 10 2016  01 38  -15.5404 26077.2   3403.0   7.4349 26298.3
 14 10 2016  01 39  -15.5380 26076.5   3402.7   7.4345 26297.6
 14 10 2016  01 40  -15.5359 26075.4   3402.6   7.4345 26296.4
 14 10 2016  01 41  -15.5340 26075.1   3402.5   7.4344 26296.2
 14 10 2016  01 42  -15.5324 26075.0   3402.8   7.4351 26296.1
 14 10 2016  01 43  -15.5287 26075.1   3405.1   7.4401 26296.5
 14 10 2016  01 44  -15.5275 26075.2   3403.9   7.4374 26296.4
 14 10 2016  01 45  -15.5273 26075.4   3402.7   7.4349 26296.5
 14 10 2016  01 46  -15.5259 26074.9   3404.5   7.4388 26296.2
 14 10 2016  01 47  -15.5265 26074.6   3403.2   7.4361 26295.8
 14 10 2016  01 48  -15.5267 26074.1   3403.9   7.4378 26295.3
 14 10 2016  01 49  -15.5256 26073.9   3403.7   7.4373 26295.1
 14 10 2016  01 50  -15.5254 26073.6   3402.0   7.4337 26294.6
 14 10 2016  01 51  -15.5257 26072.9   3401.6   7.4331 26293.8
 14 10 2016  01 52  -15.5259 26072.4   3402.0   7.4342 26293.4
 14 10 2016  01 53  -15.5258 26071.9   3402.7   7.4357 26293.0
 14 10 2016  01 54  -15.5251 26071.1   3403.0   7.4367 26292.3
 14 10 2016  01 55  -15.5246 26070.1   3402.0   7.4348 26291.1
 14 10 2016  01 56  -15.5239 26069.0   3403.0   7.4372 26290.1
 14 10 2016  01 57  -15.5241 26068.0   3402.9   7.4373 26289.2
 14 10 2016  01 58  -15.5259 26067.4   3402.3   7.4362 26288.5
 14 10 2016  01 59  -15.5269 26067.2   3402.0   7.4356 26288.2
 14 10 2016  02 00  -15.5285 26066.6   3402.1   7.4359 26287.7
 14 10 2016  02 01  -15.5286 26066.3   3403.2   7.4385 26287.5
 14 10 2016  02 02  -15.5309 26065.1   3403.6   7.4396 26286.4
 14 10 2016  02 03  -15.5320 26064.5   3402.1   7.4365 26285.6
 14 10 2016  02 04  -15.5329 26064.0   3401.9   7.4363 26285.0
 14 10 2016  02 05  -15.5329 26063.5   3402.6   7.4379 26284.7
 14 10 2016  02 06  -15.5334 26063.4   3403.3   7.4395 26284.6
 14 10 2016  02 07  -15.5345 26063.5   3402.1   7.4368 26284.6
 14 10 2016  02 08  -15.5354 26063.4   3403.1   7.4390 26284.7
 14 10 2016  02 09  -15.5372 26063.6   3403.8   7.4405 26284.9
 14 10 2016  02 10  -15.5390 26064.2   3402.5   7.4375 26285.3
 14 10 2016  02 11  -15.5408 26064.2   3402.5   7.4375 26285.3
 14 10 2016  02 12  -15.5408 26063.9   3404.1   7.4411 26285.3
 14 10 2016  02 13  -15.5413 26063.8   3404.6   7.4421 26285.2
 14 10 2016  02 14  -15.5426 26064.1   3404.2   7.4411 26285.5
 14 10 2016  02 15  -15.5432 26064.8   3404.4   7.4414 26286.2
 14 10 2016  02 16  -15.5455 26065.1   3404.4   7.4413 26286.5
 14 10 2016  02 17  -15.5452 26065.7   3404.6   7.4416 26287.1
 14 10 2016  02 18  -15.5461 26065.8   3405.2   7.4429 26287.3
 14 10 2016  02 19  -15.5469 26065.8   3405.2   7.4429 26287.3
 14 10 2016  02 20  -15.5475 26066.1   3404.4   7.4412 26287.5
 14 10 2016  02 21  -15.5475 26066.1   3404.4   7.4412 26287.5
 14 10 2016  02 22  -15.5485 26065.9   3405.6   7.4436 26287.4
 14 10 2016  02 23  -15.5503 26065.9   3404.0   7.4402 26287.2
 14 10 2016  02 24  -15.5496 26066.3   3405.2   7.4427 26287.7
 14 10 2016  02 25  -15.5505 26066.4   3405.4   7.4432 26287.9
 14 10 2016  02 26  -15.5508 26066.4   3404.8   7.4418 26287.8
 14 10 2016  02 27  -15.5508 26066.1   3405.1   7.4425 26287.6
 14 10 2016  02 28  -15.5506 26066.2   3404.7   7.4417 26287.7
 14 10 2016  02 29  -15.5507 26066.5   3403.2   7.4385 26287.7
 14 10 2016  02 30  -15.5501 26066.5   3404.6   7.4414 26287.9
 14 10 2016  02 31  -15.5514 26066.3   3403.9   7.4399 26287.6
 14 10 2016  02 32  -15.5511 26066.6   3404.3   7.4407 26287.9
 14 10 2016  02 33  -15.5507 26066.8   3405.0   7.4421 26288.2
 14 10 2016  02 34  -15.5506 26067.0   3404.8   7.4418 26288.4
 14 10 2016  02 35  -15.5508 26067.3   3404.0   7.4400 26288.7
 14 10 2016  02 36  -15.5511 26067.6   3404.9   7.4417 26289.0
 14 10 2016  02 37  -15.5511 26067.8   3404.9   7.4417 26289.3
 14 10 2016  02 38  -15.5504 26067.9   3404.7   7.4411 26289.3
 14 10 2016  02 39  -15.5492 26067.9   3404.3   7.4405 26289.2
 14 10 2016  02 40  -15.5487 26067.8   3404.7   7.4413 26289.2
 14 10 2016  02 41  -15.5491 26067.9   3404.5   7.4408 26289.3
 14 10 2016  02 42  -15.5493 26067.9   3404.8   7.4414 26289.4
 14 10 2016  02 43  -15.5502 26067.8   3403.9   7.4395 26289.1
 14 10 2016  02 44  -15.5492 26068.1   3403.7   7.4390 26289.4
 14 10 2016  02 45  -15.5487 26068.0   3404.3   7.4402 26289.3
 14 10 2016  02 46  -15.5466 26068.1   3404.2   7.4400 26289.5
 14 10 2016  02 47  -15.5454 26067.9   3406.1   7.4443 26289.4
 14 10 2016  02 48  -15.5443 26068.3   3405.5   7.4428 26289.8
 14 10 2016  02 49  -15.5436 26068.4   3405.2   7.4421 26289.8
 14 10 2016  02 50  -15.5434 26068.3   3404.6   7.4409 26289.7
 14 10 2016  02 51  -15.5426 26068.6   3405.3   7.4423 26290.0
 14 10 2016  02 52  -15.5427 26068.6   3404.2   7.4399 26289.9
 14 10 2016  02 53  -15.5408 26068.9   3404.3   7.4401 26290.3
 14 10 2016  02 54  -15.5400 26068.7   3404.4   7.4404 26290.0
 14 10 2016  02 55  -15.5396 26068.7   3403.7   7.4387 26290.0
 14 10 2016  02 56  -15.5387 26068.8   3404.4   7.4402 26290.2
 14 10 2016  02 57  -15.5393 26069.0   3404.0   7.4393 26290.3
 14 10 2016  02 58  -15.5394 26068.8   3403.9   7.4393 26290.1
 14 10 2016  02 59  -15.5376 26068.8   3404.0   7.4394 26290.1
 14 10 2016  03 00  -15.5370 26068.8   3403.9   7.4392 26290.1
 14 10 2016  03 01  -15.5362 26068.3   3403.7   7.4389 26289.6
 14 10 2016  03 02  -15.5344 26068.3   3404.5   7.4407 26289.6
 14 10 2016  03 03  -15.5343 26067.9   3402.8   7.4372 26289.1
 14 10 2016  03 04  -15.5329 26067.8   3404.6   7.4411 26289.2
 14 10 2016  03 05  -15.5323 26068.1   3403.7   7.4389 26289.4
 14 10 2016  03 06  -15.5350 26067.5   3402.0   7.4354 26288.6
 14 10 2016  03 07  -15.5341 26067.5   3401.9   7.4353 26288.5
 14 10 2016  03 08  -15.5346 26066.9   3403.0   7.4377 26288.1
 14 10 2016  03 09  -15.5338 26067.2   3404.2   7.4404 26288.5
 14 10 2016  03 10  -15.5351 26067.4   3402.0   7.4355 26288.5
 14 10 2016  03 11  -15.5349 26067.6   3402.6   7.4368 26288.7
 14 10 2016  03 12  -15.5367 26067.2   3402.5   7.4368 26288.3
 14 10 2016  03 13  -15.5383 26066.6   3403.9   7.4400 26287.9
 14 10 2016  03 14  -15.5367 26066.9   3403.9   7.4397 26288.3
 14 10 2016  03 15  -15.5371 26066.5   3404.1   7.4403 26287.9
 14 10 2016  03 16  -15.5366 26066.2   3405.0   7.4423 26287.7
 14 10 2016  03 17  -15.5375 26066.1   3404.8   7.4420 26287.6
 14 10 2016  03 18  -15.5383 26066.4   3402.8   7.4376 26287.6
 14 10 2016  03 19  -15.5382 26066.3   3403.7   7.4396 26287.6
 14 10 2016  03 20  -15.5388 26066.2   3403.9   7.4400 26287.5
 14 10 2016  03 21  -15.5386 26066.2   3403.7   7.4395 26287.5
 14 10 2016  03 22  -15.5382 26065.9   3404.9   7.4423 26287.4
 14 10 2016  03 23  -15.5377 26066.1   3404.2   7.4406 26287.4
 14 10 2016  03 24  -15.5388 26066.2   3403.7   7.4395 26287.4
 14 10 2016  03 25  -15.5389 26066.3   3404.4   7.4411 26287.7
 14 10 2016  03 26  -15.5396 26066.2   3403.9   7.4400 26287.6
 14 10 2016  03 27  -15.5400 26066.4   3403.8   7.4397 26287.7
 14 10 2016  03 28  -15.5407 26066.4   3404.1   7.4404 26287.8
 14 10 2016  03 29  -15.5410 26066.8   3404.4   7.4409 26288.2
 14 10 2016  03 30  -15.5419 26067.0   3404.3   7.4406 26288.4
 14 10 2016  03 31  -15.5429 26067.4   3404.6   7.4411 26288.8
 14 10 2016  03 32  -15.5443 26068.0   3404.6   7.4409 26289.3
 14 10 2016  03 33  -15.5454 26068.2   3404.7   7.4412 26289.6
 14 10 2016  03 34  -15.5470 26068.6   3404.7   7.4410 26290.0
 14 10 2016  03 35  -15.5476 26068.9   3404.8   7.4412 26290.3
 14 10 2016  03 36  -15.5478 26069.0   3406.2   7.4442 26290.6
 14 10 2016  03 37  -15.5499 26068.9   3404.8   7.4412 26290.3
 14 10 2016  03 38  -15.5486 26069.3   3404.6   7.4405 26290.7
 14 10 2016  03 39  -15.5498 26069.1   3403.9   7.4391 26290.3
 14 10 2016  03 40  -15.5504 26069.0   3402.9   7.4371 26290.1
 14 10 2016  03 41  -15.5493 26068.9   3404.8   7.4411 26290.3
 14 10 2016  03 42  -15.5495 26068.9   3404.6   7.4408 26290.3
 14 10 2016  03 43  -15.5491 26069.2   3404.0   7.4393 26290.5
 14 10 2016  03 44  -15.5498 26069.1   3403.8   7.4389 26290.4
 14 10 2016  03 45  -15.5488 26069.5   3404.6   7.4404 26290.9
 14 10 2016  03 46  -15.5490 26069.9   3405.3   7.4419 26291.3
 14 10 2016  03 47  -15.5495 26070.3   3404.5   7.4402 26291.7
 14 10 2016  03 48  -15.5500 26070.8   3405.0   7.4411 26292.2
 14 10 2016  03 49  -15.5503 26071.3   3405.2   7.4413 26292.7
 14 10 2016  03 50  -15.5511 26071.8   3404.3   7.4392 26293.1
 14 10 2016  03 51  -15.5511 26072.1   3404.6   7.4399 26293.5
 14 10 2016  03 52  -15.5509 26072.4   3404.7   7.4400 26293.7
 14 10 2016  03 53  -15.5505 26072.8   3404.6   7.4397 26294.2
 14 10 2016  03 54  -15.5507 26072.9   3404.9   7.4402 26294.3
 14 10 2016  03 55  -15.5503 26073.0   3405.8   7.4421 26294.5
 14 10 2016  03 56  -15.5507 26073.5   3404.2   7.4386 26294.8
 14 10 2016  03 57  -15.5517 26073.6   3405.6   7.4415 26295.0
 14 10 2016  03 58  -15.5507 26074.1   3406.1   7.4425 26295.7
 14 10 2016  03 59  -15.5516 26074.4   3404.6   7.4392 26295.8
 14 10 2016  04 00  -15.5500 26074.8   3404.9   7.4397 26296.2
 14 10 2016  04 01  -15.5507 26074.8   3403.4   7.4365 26296.0
 14 10 2016  04 02  -15.5496 26074.9   3403.0   7.4356 26296.1
 14 10 2016  04 03  -15.5488 26075.1   3403.4   7.4363 26296.3
 14 10 2016  04 04  -15.5476 26075.1   3405.5   7.4408 26296.6
 14 10 2016  04 05  -15.5452 26075.9   3405.2   7.4400 26297.3
 14 10 2016  04 06  -15.5458 26075.7   3403.9   7.4373 26296.9
 14 10 2016  04 07  -15.5455 26075.6   3404.5   7.4386 26296.9
 14 10 2016  04 08  -15.5449 26075.8   3405.3   7.4403 26297.2
 14 10 2016  04 09  -15.5449 26076.1   3404.8   7.4391 26297.5
 14 10 2016  04 10  -15.5465 26076.5   3403.3   7.4357 26297.7
 14 10 2016  04 11  -15.5463 26076.8   3405.5   7.4404 26298.3
 14 10 2016  04 12  -15.5458 26077.4   3403.9   7.4367 26298.6
 14 10 2016  04 13  -15.5476 26077.4   3402.7   7.4343 26298.4
 14 10 2016  04 14  -15.5459 26077.7   3404.8   7.4386 26299.0
 14 10 2016  04 15  -15.5465 26077.8   3403.5   7.4358 26299.0
 14 10 2016  04 16  -15.5458 26078.1   3404.5   7.4379 26299.4
 14 10 2016  04 17  -15.5456 26078.4   3404.1   7.4370 26299.6
 14 10 2016  04 18  -15.5448 26078.8   3404.3   7.4372 26300.0
 14 10 2016  04 19  -15.5460 26079.1   3402.5   7.4334 26300.1
 14 10 2016  04 20  -15.5470 26078.9   3403.5   7.4354 26300.1
 14 10 2016  04 21  -15.5467 26079.2   3404.1   7.4367 26300.4
 14 10 2016  04 22  -15.5469 26079.6   3403.7   7.4358 26300.8
 14 10 2016  04 23  -15.5475 26079.8   3403.8   7.4360 26301.0
 14 10 2016  04 24  -15.5475 26080.3   3402.6   7.4333 26301.3
 14 10 2016  04 25  -15.5467 26080.5   3403.7   7.4355 26301.7
 14 10 2016  04 26  -15.5468 26080.2   3404.5   7.4374 26301.5
 14 10 2016  04 27  -15.5478 26080.2   3402.9   7.4338 26301.2
 14 10 2016  04 28  -15.5462 26080.3   3403.9   7.4359 26301.4
 14 10 2016  04 29  -15.5462 26080.0   3403.3   7.4349 26301.1
 14 10 2016  04 30  -15.5459 26080.0   3402.9   7.4339 26301.1
 14 10 2016  04 31  -15.5444 26079.9   3404.6   7.4377 26301.2
 14 10 2016  04 32  -15.5441 26079.7   3404.6   7.4378 26301.0
 14 10 2016  04 33  -15.5441 26079.7   3403.4   7.4351 26300.8
 14 10 2016  04 34  -15.5436 26080.2   3401.9   7.4318 26301.1
 14 10 2016  04 35  -15.5446 26080.2   3402.1   7.4322 26301.2
 14 10 2016  04 36  -15.5434 26080.7   3403.0   7.4340 26301.8
 14 10 2016  04 37  -15.5444 26080.5   3403.9   7.4359 26301.7
 14 10 2016  04 38  -15.5433 26081.2   3404.9   7.4378 26302.5
 14 10 2016  04 39  -15.5430 26081.8   3404.8   7.4375 26303.1
 14 10 2016  04 40  -15.5424 26082.2   3405.0   7.4378 26303.5
 14 10 2016  04 41  -15.5435 26082.3   3404.0   7.4356 26303.5
 14 10 2016  04 42  -15.5424 26082.7   3404.4   7.4364 26304.0
 14 10 2016  04 43  -15.5420 26083.0   3403.2   7.4337 26304.1
 14 10 2016  04 44  -15.5415 26083.0   3403.4   7.4342 26304.1
 14 10 2016  04 45  -15.5410 26082.9   3403.8   7.4351 26304.1
 14 10 2016  04 46  -15.5405 26083.0   3403.5   7.4343 26304.1
 14 10 2016  04 47  -15.5399 26083.1   3403.2   7.4338 26304.2
 14 10 2016  04 48  -15.5392 26083.2   3403.6   7.4345 26304.3
 14 10 2016  04 49  -15.5394 26083.1   3402.6   7.4324 26304.1
 14 10 2016  04 50  -15.5385 26083.2   3401.5   7.4300 26304.1
 14 10 2016  04 51  -15.5381 26082.9   3402.9   7.4330 26303.9
 14 10 2016  04 52  -15.5372 26083.1   3404.1   7.4357 26304.3
 14 10 2016  04 53  -15.5380 26083.3   3402.5   7.4320 26304.3
 14 10 2016  04 54  -15.5389 26083.3   3402.5   7.4322 26304.3
 14 10 2016  04 55  -15.5372 26083.4   3404.4   7.4362 26304.6
 14 10 2016  04 56  -15.5384 26083.3   3402.4   7.4319 26304.3
 14 10 2016  04 57  -15.5387 26083.2   3402.2   7.4315 26304.2
 14 10 2016  04 58  -15.5387 26083.1   3402.5   7.4321 26304.1
 14 10 2016  04 59  -15.5388 26082.8   3403.0   7.4334 26303.8
 14 10 2016  05 00  -15.5392 26082.8   3402.7   7.4327 26303.8
 14 10 2016  05 01  -15.5401 26082.9   3402.5   7.4323 26303.9
 14 10 2016  05 02  -15.5403 26083.1   3402.8   7.4327 26304.1
 14 10 2016  05 03  -15.5406 26083.2   3403.1   7.4334 26304.2
 14 10 2016  05 04  -15.5411 26083.3   3401.7   7.4304 26304.2
 14 10 2016  05 05  -15.5408 26083.4   3403.2   7.4336 26304.5
 14 10 2016  05 06  -15.5415 26083.7   3403.2   7.4336 26304.7
 14 10 2016  05 07  -15.5425 26083.9   3403.3   7.4336 26305.0
 14 10 2016  05 08  -15.5429 26084.0   3403.6   7.4344 26305.1
 14 10 2016  05 09  -15.5433 26084.1   3402.4   7.4316 26305.1
 14 10 2016  05 10  -15.5432 26084.1   3403.3   7.4337 26305.2
 14 10 2016  05 11  -15.5447 26084.3   3402.2   7.4311 26305.2
 14 10 2016  05 12  -15.5448 26084.3   3403.8   7.4345 26305.4
 14 10 2016  05 13  -15.5445 26084.5   3404.5   7.4361 26305.8
 14 10 2016  05 14  -15.5458 26084.5   3404.3   7.4357 26305.8
 14 10 2016  05 15  -15.5467 26084.9   3402.4   7.4314 26305.8
 14 10 2016  05 16  -15.5462 26085.3   3403.1   7.4329 26306.3
 14 10 2016  05 17  -15.5462 26085.3   3403.7   7.4341 26306.4
 14 10 2016  05 18  -15.5478 26084.9   3403.1   7.4329 26306.0
 14 10 2016  05 19  -15.5476 26084.8   3404.0   7.4351 26305.9
 14 10 2016  05 20  -15.5464 26085.3   3403.7   7.4343 26306.4
 14 10 2016  05 21  -15.5474 26085.0   3403.4   7.4335 26306.1
 14 10 2016  05 22  -15.5462 26085.4   3403.4   7.4335 26306.5
 14 10 2016  05 23  -15.5454 26085.6   3402.8   7.4321 26306.6
 14 10 2016  05 24  -15.5456 26085.5   3402.8   7.4321 26306.5
 14 10 2016  05 25  -15.5448 26085.6   3403.4   7.4334 26306.7
 14 10 2016  05 26  -15.5445 26086.1   3403.3   7.4331 26307.2
 14 10 2016  05 27  -15.5450 26086.2   3403.6   7.4338 26307.3
 14 10 2016  05 28  -15.5460 26086.2   3403.2   7.4328 26307.2
 14 10 2016  05 29  -15.5464 26086.3   3403.5   7.4334 26307.4
 14 10 2016  05 30  -15.5471 26086.5   3403.5   7.4334 26307.6
 14 10 2016  05 31  -15.5459 26086.9   3405.1   7.4368 26308.2
 14 10 2016  05 32  -15.5458 26087.4   3403.3   7.4328 26308.4
 14 10 2016  05 33  -15.5461 26087.3   3404.2   7.4348 26308.5
 14 10 2016  05 34  -15.5460 26087.8   3404.2   7.4345 26308.9
 14 10 2016  05 35  -15.5470 26088.1   3404.9   7.4359 26309.4
 14 10 2016  05 36  -15.5479 26088.1   3405.1   7.4364 26309.4
 14 10 2016  05 37  -15.5475 26088.7   3403.5   7.4328 26309.8
 14 10 2016  05 38  -15.5483 26088.8   3404.9   7.4358 26310.1
 14 10 2016  05 39  -15.5487 26089.7   3405.8   7.4374 26311.0
 14 10 2016  05 40  -15.5504 26090.4   3405.3   7.4363 26311.7
 14 10 2016  05 41  -15.5510 26091.0   3404.5   7.4343 26312.2
 14 10 2016  05 42  -15.5514 26091.3   3405.3   7.4359 26312.6
 14 10 2016  05 43  -15.5532 26091.2   3403.9   7.4329 26312.3
 14 10 2016  05 44  -15.5521 26091.6   3404.7   7.4345 26312.8
 14 10 2016  05 45  -15.5540 26091.4   3404.1   7.4332 26312.6
 14 10 2016  05 46  -15.5546 26091.8   3403.8   7.4326 26312.9
 14 10 2016  05 47  -15.5552 26092.0   3403.2   7.4312 26313.0
 14 10 2016  05 48  -15.5554 26091.9   3403.8   7.4325 26312.9
 14 10 2016  05 49  -15.5551 26092.1   3404.2   7.4333 26313.3
 14 10 2016  05 50  -15.5561 26092.4   3404.0   7.4328 26313.6
 14 10 2016  05 51  -15.5567 26092.8   3403.8   7.4323 26313.9
 14 10 2016  05 52  -15.5570 26093.0   3404.7   7.4342 26314.2
 14 10 2016  05 53  -15.5574 26093.7   3403.9   7.4322 26314.8
 14 10 2016  05 54  -15.5584 26094.0   3403.3   7.4308 26315.0
 14 10 2016  05 55  -15.5582 26094.7   3403.3   7.4307 26315.7
 14 10 2016  05 56  -15.5595 26094.9   3405.4   7.4351 26316.2
 14 10 2016  05 57  -15.5604 26095.9   3404.9   7.4338 26317.1
 14 10 2016  05 58  -15.5609 26096.7   3405.7   7.4352 26318.0
 14 10 2016  05 59  -15.5611 26097.5   3404.9   7.4334 26318.7
 14 10 2016  06 00  -15.5620 26097.9   3403.9   7.4310 26318.9
 14 10 2016  06 01  -15.5616 26098.0   3405.1   7.4336 26319.2
 14 10 2016  06 02  -15.5617 26098.2   3404.3   7.4318 26319.3
 14 10 2016  06 03  -15.5608 26098.4   3403.6   7.4303 26319.4
 14 10 2016  06 04  -15.5600 26098.3   3404.4   7.4320 26319.4
 14 10 2016  06 05  -15.5590 26098.2   3404.7   7.4328 26319.4
 14 10 2016  06 06  -15.5585 26098.2   3403.5   7.4302 26319.2
 14 10 2016  06 07  -15.5577 26097.8   3403.4   7.4299 26318.8
 14 10 2016  06 08  -15.5574 26097.5   3402.5   7.4280 26318.4
 14 10 2016  06 09  -15.5567 26097.3   3403.0   7.4292 26318.3
 14 10 2016  06 10  -15.5556 26097.6   3403.6   7.4304 26318.6
 14 10 2016  06 11  -15.5539 26097.8   3403.7   7.4307 26318.8
 14 10 2016  06 12  -15.5537 26097.2   3403.6   7.4305 26318.2
 14 10 2016  06 13  -15.5525 26097.3   3403.6   7.4306 26318.3
 14 10 2016  06 14  -15.5516 26097.4   3403.8   7.4309 26318.5
 14 10 2016  06 15  -15.5517 26097.7   3402.3   7.4277 26318.5
 14 10 2016  06 16  -15.5503 26097.8   3403.0   7.4291 26318.8
 14 10 2016  06 17  -15.5484 26097.7   3403.2   7.4297 26318.7
 14 10 2016  06 18  -15.5457 26097.8   3403.9   7.4311 26318.9
 14 10 2016  06 19  -15.5455 26097.6   3403.1   7.4294 26318.6
 14 10 2016  06 20  -15.5456 26097.7   3402.4   7.4278 26318.5
 14 10 2016  06 21  -15.5449 26097.6   3402.6   7.4282 26318.5
 14 10 2016  06 22  -15.5451 26097.6   3403.0   7.4291 26318.5
 14 10 2016  06 23  -15.5440 26098.3   3402.7   7.4284 26319.2
 14 10 2016  06 24  -15.5442 26098.5   3404.0   7.4311 26319.6
 14 10 2016  06 25  -15.5433 26099.6   3403.6   7.4298 26320.6
 14 10 2016  06 26  -15.5439 26099.9   3403.3   7.4292 26320.9
 14 10 2016  06 27  -15.5439 26100.2   3403.5   7.4296 26321.2
 14 10 2016  06 28  -15.5448 26100.3   3403.4   7.4293 26321.3
 14 10 2016  06 29  -15.5444 26101.0   3403.3   7.4289 26322.0
 14 10 2016  06 30  -15.5445 26101.4   3404.1   7.4304 26322.4
 14 10 2016  06 31  -15.5444 26102.0   3402.5   7.4269 26322.9
 14 10 2016  06 32  -15.5438 26102.3   3403.2   7.4284 26323.2
 14 10 2016  06 33  -15.5441 26102.4   3402.9   7.4276 26323.3
 14 10 2016  06 34  -15.5436 26102.7   3403.3   7.4285 26323.7
 14 10 2016  06 35  -15.5433 26102.7   3404.3   7.4305 26323.8
 14 10 2016  06 36  -15.5436 26102.6   3403.6   7.4292 26323.6
 14 10 2016  06 37  -15.5428 26103.1   3404.0   7.4298 26324.1
 14 10 2016  06 38  -15.5426 26103.6   3402.6   7.4267 26324.5
 14 10 2016  06 39  -15.5431 26103.6   3403.2   7.4280 26324.5
 14 10 2016  06 40  -15.5434 26103.9   3401.7   7.4247 26324.6
 14 10 2016  06 41  -15.5427 26103.8   3404.0   7.4297 26324.8
 14 10 2016  06 42  -15.5443 26104.0   3402.7   7.4268 26324.8
 14 10 2016  06 43  -15.5448 26104.7   3402.2   7.4254 26325.4
 14 10 2016  06 44  -15.5447 26105.0   3404.3   7.4299 26326.0
 14 10 2016  06 45  -15.5458 26105.7   3402.1   7.4250 26326.5
 14 10 2016  06 46  -15.5456 26105.9   3403.2   7.4273 26326.8
 14 10 2016  06 47  -15.5463 26106.1   3402.1   7.4249 26326.8
 14 10 2016  06 48  -15.5479 26106.0   3402.4   7.4255 26326.8
 14 10 2016  06 49  -15.5478 26106.1   3403.4   7.4277 26327.0
 14 10 2016  06 50  -15.5481 26106.1   3404.0   7.4290 26327.1
 14 10 2016  06 51  -15.5486 26106.2   3404.4   7.4297 26327.3
 14 10 2016  06 52  -15.5490 26106.7   3402.7   7.4260 26327.5
 14 10 2016  06 53  -15.5493 26106.8   3402.5   7.4254 26327.6
 14 10 2016  06 54  -15.5498 26106.9   3403.5   7.4276 26327.8
 14 10 2016  06 55  -15.5495 26107.4   3404.0   7.4286 26328.4
 14 10 2016  06 56  -15.5508 26107.6   3403.2   7.4267 26328.5
 14 10 2016  06 57  -15.5501 26108.2   3401.8   7.4237 26328.9
 14 10 2016  06 58  -15.5499 26108.1   3402.4   7.4249 26328.9
 14 10 2016  06 59  -15.5498 26108.3   3403.8   7.4280 26329.3
 14 10 2016  07 00  -15.5509 26108.4   3403.8   7.4278 26329.3
 14 10 2016  07 01  -15.5510 26108.4   3403.2   7.4266 26329.2
 14 10 2016  07 02  -15.5520 26108.1   3403.2   7.4267 26329.0
 14 10 2016  07 03  -15.5521 26108.3   3402.3   7.4246 26329.0
 14 10 2016  07 04  -15.5529 26107.9   3402.5   7.4252 26328.7
 14 10 2016  07 05  -15.5525 26108.1   3402.5   7.4252 26328.9
 14 10 2016  07 06  -15.5537 26107.7   3402.8   7.4259 26328.5
 14 10 2016  07 07  -15.5541 26107.6   3402.7   7.4258 26328.4
 14 10 2016  07 08  -15.5541 26107.7   3402.1   7.4245 26328.4
 14 10 2016  07 09  -15.5545 26107.1   3403.1   7.4268 26328.0
 14 10 2016  07 10  -15.5559 26106.7   3402.8   7.4261 26327.6
 14 10 2016  07 11  -15.5560 26106.8   3402.5   7.4255 26327.6
 14 10 2016  07 12  -15.5577 26106.5   3401.7   7.4239 26327.2
 14 10 2016  07 13  -15.5570 26107.0   3401.3   7.4229 26327.6
 14 10 2016  07 14  -15.5581 26106.7   3401.3   7.4229 26327.4
 14 10 2016  07 15  -15.5583 26106.7   3402.7   7.4259 26327.5
 14 10 2016  07 16  -15.5594 26106.3   3403.3   7.4274 26327.2
 14 10 2016  07 17  -15.5602 26106.4   3402.8   7.4262 26327.2
 14 10 2016  07 18  -15.5619 26106.4   3402.0   7.4246 26327.1
 14 10 2016  07 19  -15.5622 26106.3   3402.3   7.4252 26327.1
 14 10 2016  07 20  -15.5629 26106.1   3401.7   7.4241 26326.8
 14 10 2016  07 21  -15.5645 26105.9   3400.6   7.4216 26326.5
 14 10 2016  07 22  -15.5639 26105.6   3402.4   7.4256 26326.4
 14 10 2016  07 23  -15.5660 26104.7   3401.7   7.4243 26325.4
 14 10 2016  07 24  -15.5652 26104.7   3401.9   7.4248 26325.4
 14 10 2016  07 25  -15.5641 26104.8   3402.2   7.4254 26325.5
 14 10 2016  07 26  -15.5655 26104.5   3401.9   7.4248 26325.3
 14 10 2016  07 27  -15.5650 26104.7   3402.5   7.4261 26325.5
 14 10 2016  07 28  -15.5662 26104.5   3402.4   7.4260 26325.3
 14 10 2016  07 29  -15.5672 26104.5   3402.2   7.4256 26325.3
 14 10 2016  07 30  -15.5676 26105.0   3402.0   7.4249 26325.8
 14 10 2016  07 31  -15.5674 26105.3   3402.7   7.4263 26326.2
 14 10 2016  07 32  -15.5684 26105.2   3402.7   7.4264 26326.1
 14 10 2016  07 33  -15.5691 26105.4   3402.4   7.4257 26326.2
 14 10 2016  07 34  -15.5697 26105.6   3402.9   7.4268 26326.4
 14 10 2016  07 35  -15.5701 26106.2   3402.5   7.4257 26327.0
 14 10 2016  07 36  -15.5722 26106.1   3403.1   7.4270 26326.9
 14 10 2016  07 37  -15.5722 26106.8   3402.5   7.4256 26327.6
 14 10 2016  07 38  -15.5714 26107.2   3402.1   7.4246 26328.0
 14 10 2016  07 39  -15.5723 26106.9   3402.1   7.4247 26327.7
 14 10 2016  07 40  -15.5730 26106.6   3403.6   7.4280 26327.5
 14 10 2016  07 41  -15.5724 26106.6   3404.0   7.4287 26327.6
 14 10 2016  07 42  -15.5723 26106.6   3403.0   7.4267 26327.4
 14 10 2016  07 43  -15.5710 26106.5   3403.7   7.4283 26327.4
 14 10 2016  07 44  -15.5706 26106.4   3403.5   7.4277 26327.3
 14 10 2016  07 45  -15.5709 26105.9   3402.9   7.4266 26326.8
 14 10 2016  07 46  -15.5709 26105.5   3403.0   7.4270 26326.3
 14 10 2016  07 47  -15.5702 26105.5   3402.0   7.4248 26326.2
 14 10 2016  07 48  -15.5696 26105.2   3403.8   7.4288 26326.2
 14 10 2016  07 49  -15.5692 26105.4   3403.6   7.4283 26326.4
 14 10 2016  07 50  -15.5707 26105.0   3402.0   7.4250 26325.7
 14 10 2016  07 51  -15.5702 26104.3   3403.8   7.4290 26325.3
 14 10 2016  07 52  -15.5708 26104.3   3401.1   7.4232 26325.0
 14 10 2016  07 53  -15.5706 26103.8   3402.9   7.4273 26324.7
 14 10 2016  07 54  -15.5693 26103.8   3402.6   7.4266 26324.7
 14 10 2016  07 55  -15.5696 26103.0   3402.9   7.4275 26323.9
 14 10 2016  07 56  -15.5698 26102.3   3403.5   7.4289 26323.3
 14 10 2016  07 57  -15.5697 26102.2   3401.9   7.4256 26322.9
 14 10 2016  07 58  -15.5696 26101.9   3401.9   7.4257 26322.7
 14 10 2016  07 59  -15.5705 26101.2   3402.6   7.4272 26322.0
 14 10 2016  08 00  -15.5687 26100.9   3403.3   7.4289 26321.9
 14 10 2016  08 01  -15.5690 26100.5   3401.6   7.4254 26321.2
 14 10 2016  08 02  -15.5679 26100.1   3401.0   7.4241 26320.8
 14 10 2016  08 03  -15.5677 26099.4   3402.8   7.4282 26320.3
 14 10 2016  08 04  -15.5683 26099.4   3402.2   7.4270 26320.2
 14 10 2016  08 05  -15.5687 26099.5   3402.8   7.4281 26320.4
 14 10 2016  08 06  -15.5717 26099.3   3402.5   7.4276 26320.2
 14 10 2016  08 07  -15.5729 26099.3   3402.7   7.4279 26320.2
 14 10 2016  08 08  -15.5731 26099.8   3402.3   7.4270 26320.6
 14 10 2016  08 09  -15.5733 26100.1   3403.0   7.4284 26321.0
 14 10 2016  08 10  -15.5744 26100.0   3404.5   7.4317 26321.2
 14 10 2016  08 11  -15.5751 26100.5   3404.1   7.4307 26321.6
 14 10 2016  08 12  -15.5750 26101.8   3403.3   7.4286 26322.7
 14 10 2016  08 13  -15.5757 26102.9   3404.5   7.4310 26324.0
 14 10 2016  08 14  -15.5760 26104.4   3404.5   7.4305 26325.4
 14 10 2016  08 15  -15.5759 26105.5   3405.7   7.4328 26326.7
 14 10 2016  08 16  -15.5766 26106.6   3405.7   7.4325 26327.8
 14 10 2016  08 17  -15.5774 26107.4   3405.9   7.4328 26328.6
 14 10 2016  08 18  -15.5765 26108.5   3405.5   7.4315 26329.7
 14 10 2016  08 19  -15.5765 26109.5   3405.4   7.4309 26330.6
 14 10 2016  08 20  -15.5747 26110.9   3407.3   7.4348 26332.3
 14 10 2016  08 21  -15.5747 26112.0   3405.3   7.4302 26333.1
 14 10 2016  08 22  -15.5756 26112.8   3406.8   7.4330 26334.1
 14 10 2016  08 23  -15.5769 26113.9   3405.9   7.4308 26335.0
 14 10 2016  08 24  -15.5766 26114.8   3406.0   7.4308 26336.0
 14 10 2016  08 25  -15.5754 26115.6   3406.3   7.4313 26336.8
 14 10 2016  08 26  -15.5746 26115.6   3406.9   7.4326 26336.9
 14 10 2016  08 27  -15.5729 26115.9   3406.7   7.4320 26337.1
 14 10 2016  08 28  -15.5708 26116.2   3406.8   7.4322 26337.4
 14 10 2016  08 29  -15.5690 26116.0   3406.9   7.4324 26337.2
 14 10 2016  08 30  -15.5666 26115.8   3406.7   7.4321 26337.0
 14 10 2016  08 31  -15.5637 26115.9   3406.0   7.4306 26337.1
 14 10 2016  08 32  -15.5630 26115.3   3405.0   7.4284 26336.3
 14 10 2016  08 33  -15.5611 26115.1   3404.3   7.4271 26336.1
 14 10 2016  08 34  -15.5589 26114.9   3405.2   7.4291 26335.9
 14 10 2016  08 35  -15.5574 26114.8   3404.0   7.4264 26335.7
 14 10 2016  08 36  -15.5578 26113.8   3403.2   7.4250 26334.6
 14 10 2016  08 37  -15.5562 26113.2   3404.1   7.4272 26334.2
 14 10 2016  08 38  -15.5549 26112.6   3404.2   7.4275 26333.5
 14 10 2016  08 39  -15.5539 26111.7   3403.6   7.4266 26332.6
 14 10 2016  08 40  -15.5523 26111.0   3403.2   7.4259 26331.8
 14 10 2016  08 41  -15.5512 26110.5   3403.0   7.4256 26331.3
 14 10 2016  08 42  -15.5501 26110.1   3403.3   7.4263 26331.0
 14 10 2016  08 43  -15.5498 26109.8   3403.1   7.4260 26330.6
 14 10 2016  08 44  -15.5496 26109.5   3403.0   7.4258 26330.4
 14 10 2016  08 45  -15.5495 26109.2   3403.0   7.4258 26330.1
 14 10 2016  08 46  -15.5493 26108.6   3403.1   7.4262 26329.4
 14 10 2016  08 47  -15.5491 26108.2   3402.8   7.4258 26329.0
 14 10 2016  08 48  -15.5491 26107.7   3402.7   7.4257 26328.5
 14 10 2016  08 49  -15.5484 26107.3   3402.8   7.4261 26328.1
 14 10 2016  08 50  -15.5481 26106.9   3403.0   7.4266 26327.8
 14 10 2016  08 51  -15.5478 26106.6   3402.9   7.4263 26327.5
 14 10 2016  08 52  -15.5483 26106.3   3402.5   7.4256 26327.1
 14 10 2016  08 53  -15.5489 26105.9   3402.7   7.4262 26326.7
 14 10 2016  08 54  -15.5488 26105.8   3402.4   7.4255 26326.6
 14 10 2016  08 55  -15.5493 26105.6   3402.9   7.4267 26326.4
 14 10 2016  08 56  -15.5498 26106.0   3403.4   7.4276 26326.9
 14 10 2016  08 57  -15.5502 26106.0   3403.6   7.4280 26326.9
 14 10 2016  08 58  -15.5511 26106.1   3403.9   7.4287 26327.1
 14 10 2016  08 59  -15.5511 26106.3   3403.4   7.4275 26327.2
 14 10 2016  09 00  -15.5503 26106.3   3404.2   7.4294 26327.3
 14 10 2016  09 01  -15.5512 26106.0   3403.8   7.4285 26327.0
 14 10 2016  09 02  -15.5511 26106.1   3403.1   7.4270 26326.9
 14 10 2016  09 03  -15.5512 26105.5   3404.0   7.4291 26326.5
 14 10 2016  09 04  -15.5522 26105.3   3403.2   7.4275 26326.2
 14 10 2016  09 05  -15.5518 26105.3   3403.4   7.4278 26326.2
 14 10 2016  09 06  -15.5515 26105.3   3403.5   7.4280 26326.2
 14 10 2016  09 07  -15.5519 26105.0   3403.6   7.4283 26326.0
 14 10 2016  09 08  -15.5522 26105.0   3403.5   7.4281 26325.9
 14 10 2016  09 09  -15.5524 26105.0   3403.1   7.4273 26325.9
 14 10 2016  09 10  -15.5528 26104.7   3403.1   7.4273 26325.6
 14 10 2016  09 11  -15.5525 26104.6   3403.6   7.4286 26325.6
 14 10 2016  09 12  -15.5522 26104.4   3403.9   7.4292 26325.3
 14 10 2016  09 13  -15.5516 26104.4   3403.8   7.4290 26325.4
 14 10 2016  09 14  -15.5517 26103.9   3403.4   7.4283 26324.8
 14 10 2016  09 15  -15.5512 26103.6   3403.6   7.4287 26324.6
 14 10 2016  09 16  -15.5513 26103.2   3403.2   7.4280 26324.1
 14 10 2016  09 17  -15.5517 26102.6   3403.3   7.4285 26323.6
 14 10 2016  09 18  -15.5504 26102.4   3404.4   7.4309 26323.5
 14 10 2016  09 19  -15.5500 26102.3   3404.3   7.4305 26323.4
 14 10 2016  09 20  -15.5510 26101.9   3402.5   7.4268 26322.7
 14 10 2016  09 21  -15.5499 26101.8   3403.1   7.4283 26322.8
 14 10 2016  09 22  -15.5507 26101.6   3403.5   7.4292 26322.6
 14 10 2016  09 23  -15.5504 26101.8   3403.5   7.4290 26322.7
 14 10 2016  09 24  -15.5504 26101.7   3403.9   7.4299 26322.7
 14 10 2016  09 25  -15.5495 26102.0   3404.1   7.4304 26323.0
 14 10 2016  09 26  -15.5490 26102.0   3404.5   7.4312 26323.1
 14 10 2016  09 27  -15.5487 26102.0   3404.1   7.4302 26323.1
 14 10 2016  09 28  -15.5483 26101.9   3403.7   7.4296 26322.9
 14 10 2016  09 29  -15.5484 26101.9   3403.5   7.4290 26322.8
 14 10 2016  09 30  -15.5476 26101.9   3404.1   7.4304 26323.0
 14 10 2016  09 31  -15.5474 26102.1   3403.0   7.4280 26323.0
 14 10 2016  09 32  -15.5471 26102.0   3404.2   7.4305 26323.0
 14 10 2016  09 33  -15.5476 26101.7   3403.8   7.4298 26322.7
 14 10 2016  09 34  -15.5463 26101.9   3404.1   7.4303 26322.9
 14 10 2016  09 35  -15.5452 26102.4   3403.7   7.4293 26323.4
 14 10 2016  09 36  -15.5452 26102.4   3403.9   7.4298 26323.4
 14 10 2016  09 37  -15.5448 26102.5   3404.9   7.4319 26323.6
 14 10 2016  09 38  -15.5456 26102.4   3403.9   7.4297 26323.4
 14 10 2016  09 39  -15.5451 26102.9   3403.9   7.4296 26323.9
 14 10 2016  09 40  -15.5440 26103.2   3404.9   7.4316 26324.3
 14 10 2016  09 41  -15.5455 26102.9   3404.8   7.4316 26324.0
 14 10 2016  09 42  -15.5455 26103.0   3403.7   7.4293 26324.0
 14 10 2016  09 43  -15.5448 26103.0   3404.7   7.4313 26324.1
 14 10 2016  09 44  -15.5441 26103.3   3404.8   7.4314 26324.4
 14 10 2016  09 45  -15.5444 26103.5   3404.4   7.4305 26324.5
 14 10 2016  09 46  -15.5454 26103.4   3404.7   7.4312 26324.5
 14 10 2016  09 47  -15.5454 26103.4   3404.6   7.4310 26324.5
 14 10 2016  09 48  -15.5455 26103.6   3404.8   7.4313 26324.7
 14 10 2016  09 49  -15.5460 26103.8   3404.5   7.4308 26324.9
 14 10 2016  09 50  -15.5460 26103.7   3404.9   7.4317 26324.8
 14 10 2016  09 51  -15.5460 26103.5   3404.1   7.4299 26324.6
 14 10 2016  09 52  -15.5458 26102.8   3405.5   7.4331 26324.0
 14 10 2016  09 53  -15.5459 26102.9   3405.0   7.4321 26324.1
 14 10 2016  09 54  -15.5460 26103.5   3404.6   7.4310 26324.6
 14 10 2016  09 55  -15.5466 26103.8   3405.2   7.4322 26325.0
 14 10 2016  09 56  -15.5472 26104.0   3405.4   7.4325 26325.2
 14 10 2016  09 57  -15.5475 26103.6   3405.3   7.4325 26324.7
 14 10 2016  09 58  -15.5472 26103.2   3405.7   7.4334 26324.4
 14 10 2016  09 59  -15.5469 26103.1   3405.7   7.4334 26324.3
 14 10 2016  10 00  -15.5468 26103.0   3405.7   7.4335 26324.2
 14 10 2016  10 01  -15.5457 26102.5   3406.0   7.4342 26323.8
 14 10 2016  10 02  -15.5445 26101.7   3405.7   7.4339 26323.0
 14 10 2016  10 03  -15.5440 26101.3   3405.8   7.4341 26322.6
 14 10 2016  10 04  -15.5440 26101.2   3405.8   7.4343 26322.5
 14 10 2016  10 05  -15.5445 26101.3   3405.5   7.4336 26322.5
 14 10 2016  10 06  -15.5437 26101.2   3405.8   7.4343 26322.4
 14 10 2016  10 07  -15.5431 26100.7   3405.7   7.4342 26321.9
 14 10 2016  10 08  -15.5427 26100.2   3405.9   7.4346 26321.5
 14 10 2016  10 09  -15.5418 26100.3   3406.8   7.4366 26321.7
 14 10 2016  10 10  -15.5414 26100.4   3406.8   7.4366 26321.8
 14 10 2016  10 11  -15.5407 26100.4   3406.8   7.4365 26321.8
 14 10 2016  10 12  -15.5401 26100.7   3407.2   7.4373 26322.2
 14 10 2016  10 13  -15.5397 26101.4   3407.4   7.4376 26322.9
 14 10 2016  10 14  -15.5400 26102.1   3407.7   7.4382 26323.6
 14 10 2016  10 15  -15.5395 26103.1   3408.0   7.4385 26324.7
 14 10 2016  10 16  -15.5399 26104.2   3408.9   7.4400 26325.8
 14 10 2016  10 17  -15.5395 26104.9   3409.0   7.4402 26326.5
 14 10 2016  10 18  -15.5398 26105.6   3408.9   7.4397 26327.2
 14 10 2016  10 19  -15.5400 26106.6   3409.2   7.4401 26328.2
 14 10 2016  10 20  -15.5395 26107.1   3410.0   7.4417 26328.9
 14 10 2016  10 21  -15.5401 26107.6   3409.0   7.4393 26329.2
 14 10 2016  10 22  -15.5409 26108.1   3407.9   7.4368 26329.6
 14 10 2016  10 23  -15.5415 26108.0   3409.3   7.4399 26329.6
 14 10 2016  10 24  -15.5422 26108.5   3408.1   7.4370 26330.0
 14 10 2016  10 25  -15.5436 26108.7   3407.7   7.4361 26330.1
 14 10 2016  10 26  -15.5434 26109.1   3408.1   7.4369 26330.6
 14 10 2016  10 27  -15.5433 26109.3   3408.4   7.4376 26330.8
 14 10 2016  10 28  -15.5429 26109.7   3408.8   7.4383 26331.3
 14 10 2016  10 29  -15.5426 26110.7   3408.8   7.4379 26332.2
 14 10 2016  10 30  -15.5430 26111.8   3409.6   7.4394 26333.5
 14 10 2016  10 31  -15.5428 26113.1   3410.0   7.4399 26334.8
 14 10 2016  10 32  -15.5435 26113.8   3409.9   7.4395 26335.5
 14 10 2016  10 33  -15.5439 26114.1   3409.4   7.4383 26335.8
 14 10 2016  10 34  -15.5446 26114.4   3409.0   7.4374 26336.0
 14 10 2016  10 35  -15.5453 26114.9   3409.1   7.4375 26336.5
 14 10 2016  10 36  -15.5467 26115.3   3408.9   7.4369 26336.8
 14 10 2016  10 37  -15.5478 26116.3   3408.7   7.4363 26337.8
 14 10 2016  10 38  -15.5485 26116.5   3409.2   7.4371 26338.1
 14 10 2016  10 39  -15.5490 26116.7   3408.4   7.4356 26338.1
 14 10 2016  10 40  -15.5500 26116.7   3407.8   7.4341 26338.1
 14 10 2016  10 41  -15.5504 26116.6   3408.7   7.4361 26338.1
 14 10 2016  10 42  -15.5501 26117.2   3408.6   7.4358 26338.7
 14 10 2016  10 43  -15.5503 26117.4   3408.7   7.4358 26338.9
 14 10 2016  10 44  -15.5502 26117.6   3409.1   7.4368 26339.1
 14 10 2016  10 45  -15.5505 26118.1   3408.3   7.4347 26339.6
 14 10 2016  10 46  -15.5508 26118.3   3409.5   7.4374 26339.9
 14 10 2016  10 47  -15.5519 26118.7   3408.9   7.4360 26340.2
 14 10 2016  10 48  -15.5501 26119.5   3410.1   7.4382 26341.2
 14 10 2016  10 49  -15.5499 26120.5   3410.1   7.4381 26342.2
 14 10 2016  10 50  -15.5506 26121.4   3410.5   7.4386 26343.1
 14 10 2016  10 51  -15.5504 26122.4   3410.3   7.4379 26344.0
 14 10 2016  10 52  -15.5502 26123.3   3410.4   7.4379 26345.0
 14 10 2016  10 53  -15.5504 26124.1   3410.3   7.4376 26345.7
 14 10 2016  10 54  -15.5499 26124.3   3410.2   7.4371 26345.9
 14 10 2016  10 55  -15.5492 26124.2   3409.8   7.4364 26345.8
 14 10 2016  10 56  -15.5488 26124.5   3409.8   7.4363 26346.0
 14 10 2016  10 57  -15.5476 26124.6   3409.8   7.4361 26346.2
 14 10 2016  10 58  -15.5463 26124.9   3409.9   7.4363 26346.5
 14 10 2016  10 59  -15.5454 26125.1   3410.1   7.4368 26346.7
 14 10 2016  11 00  -15.5441 26125.3   3410.3   7.4371 26347.0
 14 10 2016  11 01  -15.5430 26126.0   3410.0   7.4362 26347.6
 14 10 2016  11 02  -15.5416 26126.7   3409.9   7.4360 26348.3
 14 10 2016  11 03  -15.5412 26127.3   3410.7   7.4375 26349.0
 14 10 2016  11 04  -15.5403 26128.1   3410.1   7.4360 26349.7
 14 10 2016  11 05  -15.5398 26128.5   3409.6   7.4348 26350.0
 14 10 2016  11 06  -15.5383 26128.6   3409.6   7.4346 26350.1
 14 10 2016  11 07  -15.5367 26128.6   3409.9   7.4352 26350.2
 14 10 2016  11 08  -15.5367 26128.8   3409.0   7.4333 26350.3
 14 10 2016  11 09  -15.5352 26129.1   3408.5   7.4322 26350.5
 14 10 2016  11 10  -15.5346 26129.3   3409.5   7.4343 26350.8
 14 10 2016  11 11  -15.5337 26129.6   3409.3   7.4337 26351.1
 14 10 2016  11 12  -15.5323 26130.1   3408.9   7.4328 26351.5
 14 10 2016  11 13  -15.5315 26130.2   3409.4   7.4337 26351.6
 14 10 2016  11 14  -15.5308 26130.4   3408.4   7.4317 26351.8
 14 10 2016  11 15  -15.5305 26130.5   3408.7   7.4322 26351.9
 14 10 2016  11 16  -15.5294 26130.1   3408.1   7.4311 26351.5
 14 10 2016  11 17  -15.5285 26129.6   3408.2   7.4315 26350.9
 14 10 2016  11 18  -15.5285 26129.3   3407.9   7.4309 26350.6
 14 10 2016  11 19  -15.5289 26129.3   3407.1   7.4291 26350.5
 14 10 2016  11 20  -15.5284 26129.4   3407.6   7.4301 26350.7
 14 10 2016  11 21  -15.5280 26129.2   3408.4   7.4320 26350.6
 14 10 2016  11 22  -15.5275 26129.3   3407.9   7.4308 26350.6
 14 10 2016  11 23  -15.5278 26129.5   3407.4   7.4296 26350.8
 14 10 2016  11 24  -15.5277 26129.6   3408.0   7.4309 26350.9
 14 10 2016  11 25  -15.5275 26129.4   3407.7   7.4304 26350.7
 14 10 2016  11 26  -15.5265 26129.4   3407.2   7.4292 26350.6
 14 10 2016  11 27  -15.5269 26128.8   3406.8   7.4286 26350.0
 14 10 2016  11 28  -15.5261 26128.0   3407.4   7.4302 26349.3
 14 10 2016  11 29  -15.5259 26127.4   3407.1   7.4297 26348.6
 14 10 2016  11 30  -15.5256 26127.2   3406.6   7.4287 26348.4
 14 10 2016  11 31  -15.5256 26126.9   3406.7   7.4289 26348.1
 14 10 2016  11 32  -15.5262 26126.4   3407.3   7.4303 26347.6
 14 10 2016  11 33  -15.5262 26126.2   3406.6   7.4289 26347.3
 14 10 2016  11 34  -15.5252 26126.3   3406.8   7.4293 26347.5
 14 10 2016  11 35  -15.5247 26126.7   3407.2   7.4301 26347.9
 14 10 2016  11 36  -15.5247 26127.1   3407.3   7.4301 26348.4
 14 10 2016  11 37  -15.5251 26127.5   3407.1   7.4296 26348.7
 14 10 2016  11 38  -15.5250 26127.1   3406.5   7.4285 26348.3
 14 10 2016  11 39  -15.5251 26127.2   3406.6   7.4287 26348.3
 14 10 2016  11 40  -15.5258 26127.4   3406.7   7.4288 26348.6
 14 10 2016  11 41  -15.5260 26127.9   3406.6   7.4283 26349.0
 14 10 2016  11 42  -15.5264 26128.3   3406.6   7.4282 26349.5
 14 10 2016  11 43  -15.5266 26128.6   3406.3   7.4275 26349.7
 14 10 2016  11 44  -15.5269 26129.1   3406.3   7.4273 26350.2
 14 10 2016  11 45  -15.5273 26129.9   3406.1   7.4269 26351.0
 14 10 2016  11 46  -15.5277 26130.7   3406.1   7.4266 26351.7
 14 10 2016  11 47  -15.5277 26131.0   3405.8   7.4257 26352.0
 14 10 2016  11 48  -15.5270 26130.9   3405.4   7.4250 26351.9
 14 10 2016  11 49  -15.5274 26130.4   3404.6   7.4234 26351.3
 14 10 2016  11 50  -15.5273 26130.1   3404.3   7.4229 26351.0
 14 10 2016  11 51  -15.5272 26130.2   3404.3   7.4228 26351.0
 14 10 2016  11 52  -15.5269 26130.4   3404.3   7.4227 26351.3
 14 10 2016  11 53  -15.5271 26130.6   3404.3   7.4228 26351.4
 14 10 2016  11 54  -15.5278 26130.9   3404.3   7.4226 26351.8
 14 10 2016  11 55  -15.5279 26131.5   3404.1   7.4220 26352.3
 14 10 2016  11 56  -15.5273 26131.8   3404.3   7.4223 26352.6
 14 10 2016  11 57  -15.5270 26131.9   3403.4   7.4205 26352.6
 14 10 2016  11 58  -15.5270 26131.6   3403.5   7.4208 26352.3
 14 10 2016  11 59  -15.5270 26131.2   3402.7   7.4192 26351.8
 14 10 2016  12 00  -15.5264 26131.2   3403.0   7.4198 26351.8
 14 10 2016  12 01  -15.5263 26131.3   3402.9   7.4195 26352.0
 14 10 2016  12 02  -15.5257 26131.4   3402.7   7.4191 26352.1
 14 10 2016  12 03  -15.5256 26131.5   3402.5   7.4186 26352.1
 14 10 2016  12 04  -15.5256 26131.7   3402.2   7.4179 26352.2
 14 10 2016  12 05  -15.5256 26132.0   3402.5   7.4184 26352.6
 14 10 2016  12 06  -15.5246 26132.6   3402.7   7.4187 26353.2
 14 10 2016  12 07  -15.5234 26133.5   3402.7   7.4185 26354.1
 14 10 2016  12 08  -15.5226 26134.4   3402.7   7.4181 26354.9
 14 10 2016  12 09  -15.5222 26135.4   3402.6   7.4178 26355.9
 14 10 2016  12 10  -15.5223 26136.0   3402.1   7.4165 26356.5
 14 10 2016  12 11  -15.5223 26136.4   3401.6   7.4151 26356.9
 14 10 2016  12 12  -15.5217 26136.9   3401.4   7.4146 26357.3
 14 10 2016  12 13  -15.5217 26137.3   3400.7   7.4130 26357.6
 14 10 2016  12 14  -15.5220 26137.2   3400.2   7.4119 26357.5
 14 10 2016  12 15  -15.5226 26136.9   3399.3   7.4101 26357.0
 14 10 2016  12 16  -15.5232 26136.6   3399.0   7.4097 26356.7
 14 10 2016  12 17  -15.5235 26136.8   3399.1   7.4098 26356.9
 14 10 2016  12 18  -15.5230 26137.1   3398.9   7.4093 26357.2
 14 10 2016  12 19  -15.5230 26137.4   3398.9   7.4091 26357.5
 14 10 2016  12 20  -15.5233 26137.8   3398.9   7.4090 26357.9
 14 10 2016  12 21  -15.5236 26138.2   3398.9   7.4090 26358.2
 14 10 2016  12 22  -15.5236 26138.7   3398.6   7.4080 26358.8
 14 10 2016  12 23  -15.5234 26138.8   3398.6   7.4081 26358.9
 14 10 2016  12 24  -15.5231 26139.2   3398.7   7.4081 26359.3
 14 10 2016  12 25  -15.5231 26139.6   3398.6   7.4079 26359.6
 14 10 2016  12 26  -15.5226 26139.9   3398.0   7.4065 26359.9
 14 10 2016  12 27  -15.5225 26139.8   3398.2   7.4069 26359.8
 14 10 2016  12 28  -15.5219 26139.8   3397.5   7.4055 26359.6
 14 10 2016  12 29  -15.5213 26140.9   3397.3   7.4047 26360.8
 14 10 2016  12 30  -15.5218 26141.0   3397.2   7.4045 26360.8
 14 10 2016  12 31  -15.5214 26141.2   3397.5   7.4050 26361.1
 14 10 2016  12 32  -15.5221 26141.3   3396.6   7.4031 26361.0
 14 10 2016  12 33  -15.5226 26141.8   3396.1   7.4019 26361.4
 14 10 2016  12 34  -15.5214 26143.1   3397.2   7.4038 26362.9
 14 10 2016  12 35  -15.5210 26144.3   3396.2   7.4014 26363.9
 14 10 2016  12 36  -15.5224 26144.6   3395.8   7.4006 26364.2
 14 10 2016  12 37  -15.5233 26144.6   3395.9   7.4006 26364.3
 14 10 2016  12 38  -15.5242 26144.2   3394.7   7.3982 26363.6
 14 10 2016  12 39  -15.5241 26143.6   3394.8   7.3987 26363.1
 14 10 2016  12 40  -15.5244 26142.8   3394.0   7.3971 26362.2
 14 10 2016  12 41  -15.5251 26141.9   3393.8   7.3968 26361.3
 14 10 2016  12 42  -15.5246 26141.6   3393.8   7.3969 26361.0
 14 10 2016  12 43  -15.5241 26141.6   3394.8   7.3991 26361.1
 14 10 2016  12 44  -15.5254 26141.1   3394.0   7.3974 26360.5
 14 10 2016  12 45  -15.5248 26140.8   3395.2   7.4002 26360.4
 14 10 2016  12 46  -15.5253 26141.0   3396.1   7.4022 26360.7
 14 10 2016  12 47  -15.5247 26141.5   3396.4   7.4026 26361.3
 14 10 2016  12 48  -15.5255 26142.3   3396.0   7.4016 26362.0
 14 10 2016  12 49  -15.5267 26142.8   3396.2   7.4019 26362.5
 14 10 2016  12 50  -15.5276 26144.0   3396.1   7.4013 26363.6
 14 10 2016  12 51  -15.5278 26144.8   3397.3   7.4035 26364.6
 14 10 2016  12 52  -15.5275 26145.7   3396.5   7.4015 26365.4
 14 10 2016  12 53  -15.5267 26146.5   3396.8   7.4021 26366.3
 14 10 2016  12 54  -15.5265 26147.0   3397.0   7.4025 26366.7
 14 10 2016  12 55  -15.5260 26147.4   3395.8   7.3996 26367.0
 14 10 2016  12 56  -15.5257 26147.5   3396.0   7.4001 26367.1
 14 10 2016  12 57  -15.5247 26147.9   3396.0   7.3999 26367.5
 14 10 2016  12 58  -15.5240 26148.2   3395.9   7.3997 26367.8
 14 10 2016  12 59  -15.5245 26148.4   3396.3   7.4005 26368.1
 14 10 2016  13 00  -15.5258 26148.0   3395.8   7.3996 26367.6
 14 10 2016  13 01  -15.5269 26147.4   3394.2   7.3962 26366.8
 14 10 2016  13 02  -15.5270 26146.6   3394.2   7.3964 26366.0
 14 10 2016  13 03  -15.5275 26145.4   3394.8   7.3982 26364.9
 14 10 2016  13 04  -15.5280 26144.3   3394.9   7.3986 26363.8
 14 10 2016  13 05  -15.5284 26144.4   3395.8   7.4005 26364.0
 14 10 2016  13 06  -15.5290 26144.4   3395.5   7.3999 26363.9
 14 10 2016  13 07  -15.5287 26143.8   3395.7   7.4005 26363.4
 14 10 2016  13 08  -15.5289 26143.1   3395.2   7.3996 26362.6
 14 10 2016  13 09  -15.5302 26141.5   3394.3   7.3981 26361.0
 14 10 2016  13 10  -15.5317 26140.2   3395.9   7.4019 26359.8
 14 10 2016  13 11  -15.5314 26140.2   3395.8   7.4016 26359.9
 14 10 2016  13 12  -15.5305 26140.0   3396.1   7.4025 26359.7
 14 10 2016  13 13  -15.5308 26139.2   3397.0   7.4045 26359.0
 14 10 2016  13 14  -15.5312 26138.7   3397.3   7.4053 26358.5
 14 10 2016  13 15  -15.5314 26138.8   3398.0   7.4069 26358.7
 14 10 2016  13 16  -15.5320 26139.3   3398.6   7.4079 26359.3
 14 10 2016  13 17  -15.5324 26139.4   3399.2   7.4091 26359.5
 14 10 2016  13 18  -15.5322 26139.4   3399.7   7.4103 26359.6
 14 10 2016  13 19  -15.5315 26139.5   3399.0   7.4089 26359.5
 14 10 2016  13 20  -15.5308 26139.8   3399.9   7.4105 26360.0
 14 10 2016  13 21  -15.5305 26140.6   3399.7   7.4101 26360.7
 14 10 2016  13 22  -15.5300 26141.1   3399.1   7.4086 26361.1
 14 10 2016  13 23  -15.5286 26141.2   3399.8   7.4100 26361.4
 14 10 2016  13 24  -15.5281 26141.6   3400.6   7.4118 26361.8
 14 10 2016  13 25  -15.5277 26142.1   3400.1   7.4103 26362.3
 14 10 2016  13 26  -15.5265 26143.0   3399.6   7.4091 26363.1
 14 10 2016  13 27  -15.5259 26144.1   3400.0   7.4096 26364.3
 14 10 2016  13 28  -15.5259 26144.5   3399.0   7.4074 26364.6
 14 10 2016  13 29  -15.5254 26144.8   3398.1   7.4054 26364.7
 14 10 2016  13 30  -15.5253 26144.8   3398.8   7.4068 26364.8
 14 10 2016  13 31  -15.5263 26144.4   3397.3   7.4037 26364.2
 14 10 2016  13 32  -15.5265 26144.3   3397.8   7.4048 26364.2
 14 10 2016  13 33  -15.5258 26145.6   3398.2   7.4053 26365.5
 14 10 2016  13 34  -15.5265 26146.9   3398.2   7.4049 26366.8
 14 10 2016  13 35  -15.5269 26147.9   3397.4   7.4030 26367.7
 14 10 2016  13 36  -15.5272 26148.1   3397.5   7.4031 26367.9
 14 10 2016  13 37  -15.5274 26148.9   3396.6   7.4010 26368.6
 14 10 2016  13 38  -15.5267 26150.6   3397.9   7.4032 26370.4
 14 10 2016  13 39  -15.5261 26151.9   3398.7   7.4046 26371.8
 14 10 2016  13 40  -15.5256 26152.8   3397.0   7.4008 26372.5
 14 10 2016  13 41  -15.5247 26153.5   3396.9   7.4003 26373.1
 14 10 2016  13 42  -15.5239 26154.2   3396.9   7.4002 26373.9
 14 10 2016  13 43  -15.5231 26155.5   3396.0   7.3978 26375.0
 14 10 2016  13 44  -15.5228 26156.5   3395.7   7.3970 26376.0
 14 10 2016  13 45  -15.5226 26156.8   3395.3   7.3960 26376.2
 14 10 2016  13 46  -15.5228 26156.6   3394.2   7.3936 26375.9
 14 10 2016  13 47  -15.5227 26156.7   3394.0   7.3931 26375.9
 14 10 2016  13 48  -15.5227 26156.7   3393.7   7.3925 26375.9
 14 10 2016  13 49  -15.5229 26156.7   3393.3   7.3918 26375.9
 14 10 2016  13 50  -15.5231 26155.9   3392.5   7.3902 26375.0
 14 10 2016  13 51  -15.5231 26155.5   3392.0   7.3891 26374.5
 14 10 2016  13 52  -15.5234 26155.0   3392.2   7.3898 26374.0
 14 10 2016  13 53  -15.5240 26154.6   3392.1   7.3897 26373.6
 14 10 2016  13 54  -15.5244 26154.2   3391.8   7.3892 26373.2
 14 10 2016  13 55  -15.5243 26154.3   3392.4   7.3903 26373.4
 14 10 2016  13 56  -15.5242 26154.3   3392.7   7.3911 26373.4
 14 10 2016  13 57  -15.5231 26154.6   3392.9   7.3914 26373.7
 14 10 2016  13 58  -15.5223 26154.7   3392.9   7.3914 26373.9
 14 10 2016  13 59  -15.5215 26154.7   3393.1   7.3917 26373.9
 14 10 2016  14 00  -15.5202 26154.9   3393.3   7.3922 26374.1
 14 10 2016  14 01  -15.5194 26155.3   3393.0   7.3915 26374.5
 14 10 2016  14 02  -15.5187 26155.5   3393.3   7.3921 26374.7
 14 10 2016  14 03  -15.5185 26155.5   3392.7   7.3907 26374.6
 14 10 2016  14 04  -15.5181 26156.1   3392.9   7.3911 26375.2
 14 10 2016  14 05  -15.5181 26156.7   3392.9   7.3908 26375.8
 14 10 2016  14 06  -15.5178 26157.1   3392.9   7.3906 26376.2
 14 10 2016  14 07  -15.5174 26157.1   3392.7   7.3902 26376.2
 14 10 2016  14 08  -15.5171 26157.0   3392.4   7.3897 26376.1
 14 10 2016  14 09  -15.5175 26156.4   3391.5   7.3879 26375.3
 14 10 2016  14 10  -15.5175 26156.1   3391.4   7.3877 26375.0
 14 10 2016  14 11  -15.5173 26156.0   3391.6   7.3883 26375.0
 14 10 2016  14 12  -15.5173 26155.9   3391.6   7.3881 26374.9
 14 10 2016  14 13  -15.5168 26155.7   3391.8   7.3888 26374.7
 14 10 2016  14 14  -15.5164 26155.3   3391.5   7.3882 26374.2
 14 10 2016  14 15  -15.5160 26155.1   3391.5   7.3882 26374.0
 14 10 2016  14 16  -15.5162 26154.7   3391.3   7.3879 26373.7
 14 10 2016  14 17  -15.5165 26154.3   3391.1   7.3876 26373.2
 14 10 2016  14 18  -15.5165 26153.0   3391.1   7.3881 26371.9
 14 10 2016  14 19  -15.5174 26151.4   3390.1   7.3863 26370.2
 14 10 2016  14 20  -15.5174 26150.8   3391.4   7.3892 26369.7
 14 10 2016  14 21  -15.5174 26150.6   3391.1   7.3887 26369.6
 14 10 2016  14 22  -15.5176 26150.4   3392.2   7.3911 26369.5
 14 10 2016  14 23  -15.5182 26149.9   3391.5   7.3896 26369.0
 14 10 2016  14 24  -15.5188 26149.4   3391.8   7.3906 26368.4
 14 10 2016  14 25  -15.5192 26148.6   3391.0   7.3890 26367.5
 14 10 2016  14 26  -15.5192 26148.3   3391.3   7.3897 26367.3
 14 10 2016  14 27  -15.5188 26148.2   3391.6   7.3904 26367.3
 14 10 2016  14 28  -15.5183 26148.4   3392.2   7.3916 26367.5
 14 10 2016  14 29  -15.5175 26148.7   3392.7   7.3927 26367.9
 14 10 2016  14 30  -15.5166 26149.6   3393.3   7.3937 26368.9
 14 10 2016  14 31  -15.5157 26150.9   3394.0   7.3949 26370.2
 14 10 2016  14 32  -15.5156 26152.1   3393.4   7.3933 26371.3
 14 10 2016  14 33  -15.5153 26152.9   3393.5   7.3931 26372.1
 14 10 2016  14 34  -15.5151 26153.5   3392.3   7.3904 26372.6
 14 10 2016  14 35  -15.5148 26153.9   3392.4   7.3905 26373.0
 14 10 2016  14 36  -15.5146 26154.3   3391.7   7.3888 26373.3
 14 10 2016  14 37  -15.5149 26154.6   3391.4   7.3881 26373.5
 14 10 2016  14 38  -15.5150 26154.7   3390.7   7.3867 26373.5
 14 10 2016  14 39  -15.5155 26154.6   3390.6   7.3864 26373.5
 14 10 2016  14 40  -15.5163 26154.7   3389.7   7.3845 26373.4
 14 10 2016  14 41  -15.5169 26154.9   3389.6   7.3843 26373.6
 14 10 2016  14 42  -15.5169 26154.8   3388.7   7.3822 26373.4
 14 10 2016  14 43  -15.5176 26154.1   3388.6   7.3822 26372.7
 14 10 2016  14 44  -15.5183 26153.5   3387.8   7.3808 26372.0
 14 10 2016  14 45  -15.5185 26152.7   3388.0   7.3814 26371.3
 14 10 2016  14 46  -15.5186 26152.2   3387.9   7.3814 26370.7
 14 10 2016  14 47  -15.5188 26151.6   3387.9   7.3815 26370.2
 14 10 2016  14 48  -15.5186 26151.4   3388.5   7.3828 26370.0
 14 10 2016  14 49  -15.5182 26151.7   3388.5   7.3827 26370.3
 14 10 2016  14 50  -15.5170 26152.8   3390.1   7.3859 26371.6
 14 10 2016  14 51  -15.5163 26153.5   3390.0   7.3854 26372.3
 14 10 2016  14 52  -15.5158 26154.5   3390.1   7.3854 26373.3
 14 10 2016  14 53  -15.5155 26155.5   3389.9   7.3846 26374.3
 14 10 2016  14 54  -15.5154 26155.5   3389.4   7.3836 26374.2
 14 10 2016  14 55  -15.5162 26155.1   3387.4   7.3794 26373.6
 14 10 2016  14 56  -15.5162 26154.8   3387.3   7.3793 26373.2
 14 10 2016  14 57  -15.5162 26153.8   3386.3   7.3774 26372.2
 14 10 2016  14 58  -15.5167 26152.6   3386.0   7.3772 26370.9
 14 10 2016  14 59  -15.5174 26151.1   3385.5   7.3765 26369.4
 14 10 2016  15 00  -15.5182 26150.0   3384.9   7.3754 26368.2
 14 10 2016  15 01  -15.5189 26149.5   3385.2   7.3762 26367.7
 14 10 2016  15 02  -15.5194 26149.2   3385.9   7.3779 26367.5
 14 10 2016  15 03  -15.5199 26148.8   3386.1   7.3783 26367.2
 14 10 2016  15 04  -15.5208 26148.1   3385.9   7.3782 26366.4
 14 10 2016  15 05  -15.5217 26147.4   3385.5   7.3775 26365.6
 14 10 2016  15 06  -15.5222 26146.5   3386.4   7.3797 26364.9
 14 10 2016  15 07  -15.5227 26145.6   3386.3   7.3797 26363.9
 14 10 2016  15 08  -15.5232 26144.7   3386.5   7.3804 26363.2
 14 10 2016  15 09  -15.5238 26143.8   3387.1   7.3819 26362.3
 14 10 2016  15 10  -15.5244 26142.9   3387.7   7.3834 26361.5
 14 10 2016  15 11  -15.5250 26142.1   3387.7   7.3837 26360.7
 14 10 2016  15 12  -15.5251 26141.9   3387.7   7.3837 26360.5
 14 10 2016  15 13  -15.5249 26141.9   3388.2   7.3848 26360.5
 14 10 2016  15 14  -15.5249 26141.9   3388.8   7.3861 26360.6
 14 10 2016  15 15  -15.5249 26141.5   3389.2   7.3872 26360.3
 14 10 2016  15 16  -15.5249 26141.4   3389.3   7.3873 26360.2
 14 10 2016  15 17  -15.5246 26141.6   3389.7   7.3880 26360.5
 14 10 2016  15 18  -15.5240 26142.1   3389.9   7.3885 26361.0
 14 10 2016  15 19  -15.5238 26142.2   3388.9   7.3863 26361.0
 14 10 2016  15 20  -15.5236 26142.4   3389.3   7.3870 26361.2
 14 10 2016  15 21  -15.5235 26142.8   3389.0   7.3863 26361.6
 14 10 2016  15 22  -15.5234 26143.2   3389.1   7.3865 26361.9
 14 10 2016  15 23  -15.5233 26143.3   3389.1   7.3863 26362.0
 14 10 2016  15 24  -15.5227 26143.0   3388.1   7.3844 26361.6
 14 10 2016  15 25  -15.5217 26142.8   3387.8   7.3837 26361.4
 14 10 2016  15 26  -15.5212 26142.7   3387.1   7.3821 26361.2
 14 10 2016  15 27  -15.5207 26142.9   3386.7   7.3813 26361.4
 14 10 2016  15 28  -15.5199 26143.3   3386.5   7.3808 26361.7
 14 10 2016  15 29  -15.5193 26143.5   3386.3   7.3803 26361.9
 14 10 2016  15 30  -15.5187 26143.6   3386.0   7.3795 26362.0
 14 10 2016  15 31  -15.5175 26143.6   3385.9   7.3795 26361.9
 14 10 2016  15 32  -15.5169 26143.4   3385.2   7.3779 26361.6
 14 10 2016  15 33  -15.5165 26142.9   3383.4   7.3743 26360.9
 14 10 2016  15 34  -15.5158 26142.5   3383.7   7.3749 26360.5
 14 10 2016  15 35  -15.5153 26142.9   3384.2   7.3758 26361.0
 14 10 2016  15 36  -15.5149 26143.6   3383.4   7.3740 26361.6
 14 10 2016  15 37  -15.5148 26143.8   3383.8   7.3748 26361.8
 14 10 2016  15 38  -15.5155 26143.9   3382.5   7.3719 26361.8
 14 10 2016  15 39  -15.5164 26143.6   3382.6   7.3722 26361.5
 14 10 2016  15 40  -15.5177 26143.7   3382.3   7.3717 26361.6
 14 10 2016  15 41  -15.5193 26143.4   3382.1   7.3713 26361.3
 14 10 2016  15 42  -15.5205 26143.0   3382.3   7.3719 26360.9
 14 10 2016  15 43  -15.5214 26142.8   3382.8   7.3730 26360.7
 14 10 2016  15 44  -15.5222 26142.9   3382.4   7.3721 26360.8
 14 10 2016  15 45  -15.5231 26142.5   3383.1   7.3737 26360.5
 14 10 2016  15 46  -15.5238 26141.9   3383.0   7.3735 26359.9
 14 10 2016  15 47  -15.5241 26141.3   3383.2   7.3742 26359.3
 14 10 2016  15 48  -15.5245 26140.8   3383.7   7.3754 26358.9
 14 10 2016  15 49  -15.5243 26140.7   3383.0   7.3741 26358.7
 14 10 2016  15 50  -15.5240 26140.2   3383.6   7.3754 26358.3
 14 10 2016  15 51  -15.5243 26139.8   3383.9   7.3761 26357.9
 14 10 2016  15 52  -15.5239 26139.3   3384.0   7.3764 26357.5
 14 10 2016  15 53  -15.5237 26138.7   3383.7   7.3761 26356.8
 14 10 2016  15 54  -15.5237 26138.2   3383.2   7.3752 26356.3
 14 10 2016  15 55  -15.5235 26137.6   3384.3   7.3776 26355.8
 14 10 2016  15 56  -15.5234 26137.6   3384.1   7.3772 26355.8
 14 10 2016  15 57  -15.5230 26137.3   3384.5   7.3782 26355.5
 14 10 2016  15 58  -15.5228 26137.0   3385.1   7.3795 26355.3
 14 10 2016  15 59  -15.5226 26136.9   3384.8   7.3789 26355.1
 14 10 2016  16 00  -15.5221 26136.9   3385.4   7.3802 26355.2
 14 10 2016  16 01  -15.5223 26136.8   3385.2   7.3797 26355.1
 14 10 2016  16 02  -15.5222 26136.9   3385.3   7.3800 26355.2
 14 10 2016  16 03  -15.5221 26136.7   3385.2   7.3798 26355.0
 14 10 2016  16 04  -15.5220 26136.6   3385.5   7.3805 26355.0
 14 10 2016  16 05  -15.5219 26137.1   3385.2   7.3798 26355.4
 14 10 2016  16 06  -15.5219 26137.2   3385.8   7.3809 26355.6
 14 10 2016  16 07  -15.5220 26137.3   3385.5   7.3804 26355.6
 14 10 2016  16 08  -15.5221 26137.0   3385.6   7.3805 26355.3
 14 10 2016  16 09  -15.5221 26136.7   3385.1   7.3796 26355.0
 14 10 2016  16 10  -15.5222 26136.4   3385.1   7.3797 26354.7
 14 10 2016  16 11  -15.5221 26135.8   3385.0   7.3795 26354.1
 14 10 2016  16 12  -15.5219 26135.4   3384.9   7.3795 26353.6
 14 10 2016  16 13  -15.5220 26134.8   3384.5   7.3789 26353.0
 14 10 2016  16 14  -15.5216 26134.6   3384.8   7.3795 26352.8
 14 10 2016  16 15  -15.5211 26134.3   3385.2   7.3805 26352.6
 14 10 2016  16 16  -15.5205 26134.2   3385.3   7.3808 26352.6
 14 10 2016  16 17  -15.5197 26134.3   3385.3   7.3807 26352.6
 14 10 2016  16 18  -15.5193 26134.2   3385.5   7.3812 26352.6
 14 10 2016  16 19  -15.5192 26133.6   3384.7   7.3796 26351.9
 14 10 2016  16 20  -15.5193 26132.4   3384.0   7.3784 26350.6
 14 10 2016  16 21  -15.5191 26131.6   3384.2   7.3790 26349.8
 14 10 2016  16 22  -15.5185 26131.4   3384.7   7.3802 26349.7
 14 10 2016  16 23  -15.5188 26130.7   3384.7   7.3803 26349.0
 14 10 2016  16 24  -15.5195 26129.6   3384.1   7.3794 26347.8
 14 10 2016  16 25  -15.5200 26128.5   3384.8   7.3813 26346.9
 14 10 2016  16 26  -15.5206 26127.4   3384.4   7.3807 26345.7
 14 10 2016  16 27  -15.5205 26126.7   3385.5   7.3833 26345.1
 14 10 2016  16 28  -15.5204 26126.2   3385.2   7.3828 26344.6
 14 10 2016  16 29  -15.5200 26125.7   3385.6   7.3837 26344.1
 14 10 2016  16 30  -15.5195 26125.3   3386.6   7.3860 26343.9
 14 10 2016  16 31  -15.5192 26125.1   3386.6   7.3862 26343.6
 14 10 2016  16 32  -15.5192 26124.9   3385.8   7.3844 26343.4
 14 10 2016  16 33  -15.5187 26125.0   3386.6   7.3862 26343.6
 14 10 2016  16 34  -15.5182 26125.0   3386.7   7.3863 26343.6
 14 10 2016  16 35  -15.5179 26125.3   3387.0   7.3868 26343.9
 14 10 2016  16 36  -15.5175 26125.3   3387.8   7.3886 26344.1
 14 10 2016  16 37  -15.5175 26125.2   3387.8   7.3887 26344.0
 14 10 2016  16 38  -15.5172 26125.1   3387.7   7.3884 26343.9
 14 10 2016  16 39  -15.5170 26125.4   3387.6   7.3881 26344.2
 14 10 2016  16 40  -15.5155 26126.9   3388.7   7.3901 26345.8
 14 10 2016  16 41  -15.5148 26127.5   3389.1   7.3908 26346.4
 14 10 2016  16 42  -15.5143 26128.1   3388.6   7.3894 26347.0
 14 10 2016  16 43  -15.5139 26128.8   3388.2   7.3884 26347.6
 14 10 2016  16 44  -15.5134 26129.8   3388.2   7.3882 26348.5
 14 10 2016  16 45  -15.5129 26130.4   3388.5   7.3886 26349.2
 14 10 2016  16 46  -15.5124 26131.0   3387.9   7.3872 26349.7
 14 10 2016  16 47  -15.5121 26131.8   3387.8   7.3869 26350.5
 14 10 2016  16 48  -15.5110 26133.0   3388.7   7.3885 26351.8
 14 10 2016  16 49  -15.5101 26133.9   3388.6   7.3880 26352.7
 14 10 2016  16 50  -15.5094 26134.9   3388.4   7.3872 26353.6
 14 10 2016  16 51  -15.5090 26135.1   3389.0   7.3884 26353.9
 14 10 2016  16 52  -15.5093 26135.0   3387.4   7.3849 26353.6
 14 10 2016  16 53  -15.5096 26134.8   3387.7   7.3858 26353.5
 14 10 2016  16 54  -15.5104 26134.4   3387.1   7.3846 26352.9
 14 10 2016  16 55  -15.5111 26133.8   3386.6   7.3837 26352.3
 14 10 2016  16 56  -15.5117 26133.1   3386.6   7.3839 26351.6
 14 10 2016  16 57  -15.5123 26132.4   3386.0   7.3826 26350.9
 14 10 2016  16 58  -15.5124 26132.0   3387.1   7.3853 26350.6
 14 10 2016  16 59  -15.5128 26131.1   3386.4   7.3839 26349.6
 14 10 2016  17 00  -15.5126 26130.3   3386.5   7.3844 26348.8
 14 10 2016  17 01  -15.5123 26129.8   3386.7   7.3850 26348.4
 14 10 2016  17 02  -15.5121 26129.6   3386.8   7.3852 26348.2
 14 10 2016  17 03  -15.5120 26129.2   3386.9   7.3857 26347.8
 14 10 2016  17 04  -15.5121 26128.9   3387.4   7.3867 26347.5
 14 10 2016  17 05  -15.5121 26128.6   3387.4   7.3869 26347.3
 14 10 2016  17 06  -15.5118 26128.5   3387.8   7.3877 26347.2
 14 10 2016  17 07  -15.5119 26128.8   3388.8   7.3898 26347.6
 14 10 2016  17 08  -15.5110 26130.0   3389.6   7.3911 26348.9
 14 10 2016  17 09  -15.5114 26131.2   3390.5   7.3927 26350.2
 14 10 2016  17 10  -15.5117 26131.8   3390.3   7.3921 26350.8
 14 10 2016  17 11  -15.5114 26131.9   3390.0   7.3916 26350.8
 14 10 2016  17 12  -15.5124 26131.7   3390.0   7.3915 26350.7
 14 10 2016  17 13  -15.5128 26131.3   3389.4   7.3903 26350.2
 14 10 2016  17 14  -15.5130 26130.3   3389.1   7.3900 26349.1
 14 10 2016  17 16  -15.5125 26129.2   3389.2   7.3906 26348.1
 14 10 2016  17 17  -15.5122 26129.0   3389.6   7.3914 26347.9
 14 10 2016  17 18  -15.5119 26129.1   3390.1   7.3925 26348.1
 14 10 2016  17 19  -15.5119 26129.0   3390.5   7.3934 26348.1
 14 10 2016  17 20  -15.5120 26128.7   3390.6   7.3936 26347.7
 14 10 2016  17 21  -15.5122 26128.5   3390.8   7.3942 26347.6
 14 10 2016  17 22  -15.5121 26128.2   3391.1   7.3948 26347.4
 14 10 2016  17 23  -15.5118 26128.1   3391.3   7.3953 26347.3
 14 10 2016  17 24  -15.5115 26127.8   3391.6   7.3961 26347.0
 14 10 2016  17 25  -15.5111 26127.3   3391.8   7.3967 26346.6
 14 10 2016  17 26  -15.5108 26127.0   3392.0   7.3973 26346.3
 14 10 2016  17 27  -15.5104 26126.6   3392.8   7.3989 26346.0
 14 10 2016  17 28  -15.5102 26125.8   3392.6   7.3987 26345.2
 14 10 2016  17 29  -15.5098 26125.3   3392.7   7.3993 26344.7
 14 10 2016  17 30  -15.5093 26125.0   3393.3   7.4005 26344.4
 14 10 2016  17 31  -15.5092 26124.7   3393.5   7.4011 26344.2
 14 10 2016  17 32  -15.5090 26124.4   3394.0   7.4022 26343.9
 14 10 2016  17 33  -15.5086 26124.0   3393.9   7.4022 26343.6
 14 10 2016  17 34  -15.5083 26123.9   3394.5   7.4035 26343.5
 14 10 2016  17 35  -15.5083 26123.7   3394.2   7.4029 26343.2
 14 10 2016  17 36  -15.5080 26123.6   3394.6   7.4037 26343.2
 14 10 2016  17 37  -15.5073 26123.8   3394.9   7.4043 26343.5
 14 10 2016  17 38  -15.5075 26123.8   3395.0   7.4046 26343.4
 14 10 2016  17 39  -15.5076 26123.8   3395.7   7.4060 26343.5
 14 10 2016  17 40  -15.5069 26124.0   3395.5   7.4056 26343.7
 14 10 2016  17 41  -15.5070 26123.9   3396.0   7.4066 26343.7
 14 10 2016  17 42  -15.5074 26123.8   3396.3   7.4075 26343.6
 14 10 2016  17 43  -15.5064 26123.7   3396.0   7.4067 26343.5
 14 10 2016  17 44  -15.5064 26123.7   3395.6   7.4059 26343.4
 14 10 2016  17 45  -15.5068 26123.4   3396.0   7.4069 26343.2
 14 10 2016  17 46  -15.5067 26123.2   3395.7   7.4062 26343.0
 14 10 2016  17 47  -15.5066 26123.1   3395.3   7.4054 26342.8
 14 10 2016  17 48  -15.5065 26122.9   3396.1   7.4071 26342.7
 14 10 2016  17 49  -15.5058 26123.1   3396.4   7.4078 26342.9
 14 10 2016  17 50  -15.5059 26123.0   3396.6   7.4081 26342.9
 14 10 2016  17 51  -15.5066 26122.9   3396.0   7.4070 26342.7
 14 10 2016  17 52  -15.5065 26122.6   3396.8   7.4087 26342.6
 14 10 2016  17 53  -15.5069 26122.5   3396.4   7.4079 26342.4
 14 10 2016  17 54  -15.5067 26122.5   3395.8   7.4067 26342.3
 14 10 2016  17 55  -15.5066 26122.4   3396.7   7.4086 26342.3
 14 10 2016  17 56  -15.5068 26122.4   3396.4   7.4080 26342.3
 14 10 2016  17 57  -15.5070 26122.5   3396.2   7.4076 26342.4
 14 10 2016  17 58  -15.5065 26122.5   3396.6   7.4084 26342.5
 14 10 2016  17 59  -15.5075 26122.1   3396.8   7.4089 26342.0
 14 10 2016  18 00  -15.5078 26121.8   3396.6   7.4085 26341.7
 14 10 2016  18 01  -15.5074 26121.5   3396.7   7.4089 26341.4
 14 10 2016  18 02  -15.5079 26121.2   3396.8   7.4091 26341.2
 14 10 2016  18 03  -15.5076 26121.3   3396.6   7.4087 26341.3
 14 10 2016  18 04  -15.5074 26121.2   3397.1   7.4099 26341.1
 14 10 2016  18 05  -15.5080 26121.0   3397.0   7.4097 26341.0
 14 10 2016  18 06  -15.5080 26120.9   3397.1   7.4099 26340.9
 14 10 2016  18 07  -15.5078 26121.0   3397.1   7.4098 26341.0
 14 10 2016  18 08  -15.5078 26120.9   3397.6   7.4111 26341.0
 14 10 2016  18 09  -15.5079 26121.0   3397.5   7.4106 26341.0
 14 10 2016  18 10  -15.5077 26121.0   3398.2   7.4123 26341.1
 14 10 2016  18 11  -15.5078 26120.9   3398.2   7.4122 26341.0
 14 10 2016  18 12  -15.5081 26120.8   3398.7   7.4133 26341.0
 14 10 2016  18 13  -15.5083 26120.7   3397.7   7.4112 26340.8
 14 10 2016  18 14  -15.5082 26120.7   3398.6   7.4131 26340.8
 14 10 2016  18 15  -15.5076 26120.8   3399.3   7.4146 26341.1
 14 10 2016  18 16  -15.5084 26120.6   3398.4   7.4128 26340.7
 14 10 2016  18 17  -15.5078 26120.7   3398.9   7.4139 26340.9
 14 10 2016  18 18  -15.5081 26120.5   3399.2   7.4145 26340.8
 14 10 2016  18 19  -15.5083 26120.3   3399.3   7.4147 26340.5
 14 10 2016  18 20  -15.5087 26120.0   3399.4   7.4151 26340.3
 14 10 2016  18 21  -15.5089 26119.8   3399.2   7.4147 26340.0
 14 10 2016  18 22  -15.5085 26119.6   3399.0   7.4144 26339.9
 14 10 2016  18 23  -15.5089 26119.2   3399.5   7.4155 26339.5
 14 10 2016  18 24  -15.5090 26119.0   3399.7   7.4160 26339.3
 14 10 2016  18 25  -15.5092 26118.7   3400.0   7.4168 26339.1
 14 10 2016  18 26  -15.5086 26118.6   3400.5   7.4180 26339.0
 14 10 2016  18 27  -15.5092 26118.2   3400.8   7.4187 26338.7
 14 10 2016  18 28  -15.5095 26118.2   3400.3   7.4175 26338.6
 14 10 2016  18 29  -15.5095 26118.2   3400.1   7.4170 26338.6
 14 10 2016  18 30  -15.5094 26118.3   3400.5   7.4179 26338.7
 14 10 2016  18 31  -15.5098 26118.2   3400.1   7.4172 26338.6
 14 10 2016  18 32  -15.5091 26118.2   3401.6   7.4204 26338.8
 14 10 2016  18 33  -15.5090 26118.3   3401.6   7.4204 26338.9
 14 10 2016  18 34  -15.5092 26118.4   3400.4   7.4178 26338.8
 14 10 2016  18 35  -15.5091 26118.6   3400.5   7.4179 26339.0
 14 10 2016  18 36  -15.5092 26118.6   3400.6   7.4182 26339.1
 14 10 2016  18 37  -15.5096 26118.5   3400.7   7.4184 26338.9
 14 10 2016  18 38  -15.5089 26118.4   3401.7   7.4205 26339.0
 14 10 2016  18 39  -15.5088 26118.5   3400.6   7.4180 26338.9
 14 10 2016  18 40  -15.5094 26118.3   3400.4   7.4179 26338.7
 14 10 2016  18 41  -15.5093 26118.3   3400.4   7.4178 26338.7
 14 10 2016  18 42  -15.5095 26118.2   3400.9   7.4189 26338.7
 14 10 2016  18 43  -15.5085 26118.5   3400.9   7.4187 26338.9
 14 10 2016  18 44  -15.5089 26118.4   3400.7   7.4183 26338.9
 14 10 2016  18 45  -15.5082 26118.4   3400.4   7.4178 26338.9
 14 10 2016  18 46  -15.5083 26118.2   3401.2   7.4195 26338.7
 14 10 2016  18 47  -15.5081 26118.2   3400.1   7.4172 26338.6
 14 10 2016  18 48  -15.5080 26118.2   3399.1   7.4150 26338.4
 14 10 2016  18 49  -15.5075 26118.1   3399.7   7.4162 26338.5
 14 10 2016  18 50  -15.5069 26118.2   3400.6   7.4181 26338.6
 14 10 2016  18 51  -15.5067 26118.2   3400.2   7.4173 26338.6
 14 10 2016  18 52  -15.5073 26118.1   3399.2   7.4152 26338.3
 14 10 2016  18 53  -15.5067 26118.0   3399.4   7.4156 26338.3
 14 10 2016  18 54  -15.5065 26118.0   3399.2   7.4152 26338.3
 14 10 2016  18 55  -15.5064 26118.0   3399.4   7.4158 26338.3
 14 10 2016  18 56  -15.5069 26117.9   3398.7   7.4141 26338.1
 14 10 2016  18 57  -15.5068 26117.7   3399.4   7.4158 26338.0
 14 10 2016  18 58  -15.5070 26117.6   3399.3   7.4156 26337.9
 14 10 2016  18 59  -15.5060 26118.0   3398.9   7.4145 26338.2
 14 10 2016  19 00  -15.5066 26117.8   3399.6   7.4163 26338.1
 14 10 2016  19 01  -15.5070 26117.9   3398.0   7.4127 26338.0
 14 10 2016  19 02  -15.5062 26118.0   3399.1   7.4151 26338.2
 14 10 2016  19 03  -15.5053 26118.2   3399.1   7.4149 26338.5
 14 10 2016  19 04  -15.5062 26118.2   3398.5   7.4138 26338.4
 14 10 2016  19 05  -15.5056 26118.4   3397.7   7.4120 26338.5
 14 10 2016  19 06  -15.5064 26118.1   3397.8   7.4121 26338.2
 14 10 2016  19 07  -15.5069 26118.0   3397.8   7.4122 26338.1
 14 10 2016  19 08  -15.5064 26118.0   3398.5   7.4137 26338.2
 14 10 2016  19 09  -15.5066 26118.0   3398.2   7.4132 26338.2
 14 10 2016  19 10  -15.5065 26118.2   3396.7   7.4097 26338.2
 14 10 2016  19 11  -15.5064 26117.9   3397.8   7.4123 26338.0
 14 10 2016  19 12  -15.5066 26118.1   3397.0   7.4104 26338.1
 14 10 2016  19 13  -15.5074 26117.7   3397.5   7.4116 26337.8
 14 10 2016  19 14  -15.5069 26118.1   3396.3   7.4089 26338.0
 14 10 2016  19 15  -15.5072 26118.1   3396.8   7.4100 26338.0
 14 10 2016  19 16  -15.5068 26118.2   3396.7   7.4099 26338.1
 14 10 2016  19 17  -15.5072 26118.1   3396.5   7.4093 26338.1
 14 10 2016  19 18  -15.5068 26118.3   3396.7   7.4097 26338.2
 14 10 2016  19 19  -15.5075 26118.2   3396.2   7.4086 26338.1
 14 10 2016  19 20  -15.5082 26118.2   3396.2   7.4087 26338.0
 14 10 2016  19 21  -15.5084 26118.4   3395.8   7.4077 26338.2
 14 10 2016  19 22  -15.5082 26118.4   3396.5   7.4092 26338.4
 14 10 2016  19 23  -15.5078 26118.7   3396.7   7.4096 26338.6
 14 10 2016  19 24  -15.5074 26119.1   3397.4   7.4110 26339.1
 14 10 2016  19 25  -15.5078 26119.3   3397.1   7.4104 26339.3
 14 10 2016  19 26  -15.5086 26119.7   3396.4   7.4088 26339.6
 14 10 2016  19 27  -15.5079 26120.2   3396.2   7.4081 26340.0
 14 10 2016  19 28  -15.5087 26120.4   3395.1   7.4056 26340.1
 14 10 2016  19 29  -15.5090 26120.3   3396.1   7.4080 26340.2
 14 10 2016  19 30  -15.5085 26120.7   3395.7   7.4069 26340.5
 14 10 2016  19 31  -15.5083 26120.8   3395.9   7.4073 26340.7
 14 10 2016  19 32  -15.5088 26120.9   3396.3   7.4083 26340.8
 14 10 2016  19 33  -15.5087 26121.1   3396.1   7.4076 26340.9
 14 10 2016  19 34  -15.5087 26121.2   3396.0   7.4075 26341.0
 14 10 2016  19 35  -15.5088 26121.4   3395.5   7.4064 26341.2
 14 10 2016  19 36  -15.5091 26121.7   3395.4   7.4059 26341.4
 14 10 2016  19 37  -15.5088 26122.1   3395.9   7.4071 26341.9
 14 10 2016  19 38  -15.5088 26122.6   3395.3   7.4056 26342.3
 14 10 2016  19 39  -15.5089 26123.0   3395.4   7.4057 26342.7
 14 10 2016  19 40  -15.5087 26123.2   3395.1   7.4050 26342.9
 14 10 2016  19 41  -15.5082 26123.4   3395.9   7.4065 26343.2
 14 10 2016  19 42  -15.5090 26123.5   3394.8   7.4043 26343.1
 14 10 2016  19 43  -15.5093 26123.5   3394.2   7.4029 26343.1
 14 10 2016  19 44  -15.5085 26123.6   3394.5   7.4035 26343.3
 14 10 2016  19 45  -15.5087 26123.4   3394.1   7.4028 26343.0
 14 10 2016  19 46  -15.5087 26123.4   3394.1   7.4027 26342.9
 14 10 2016  19 47  -15.5090 26123.2   3394.5   7.4037 26342.8
 14 10 2016  19 48  -15.5087 26123.3   3393.5   7.4014 26342.8
 14 10 2016  19 49  -15.5082 26123.3   3394.9   7.4044 26342.9
 14 10 2016  19 50  -15.5091 26123.1   3394.7   7.4041 26342.7
 14 10 2016  19 51  -15.5090 26123.5   3393.6   7.4015 26343.0
 14 10 2016  19 52  -15.5090 26123.7   3393.8   7.4019 26343.2
 14 10 2016  19 53  -15.5090 26123.9   3393.7   7.4018 26343.4
 14 10 2016  19 54  -15.5091 26124.0   3393.8   7.4018 26343.6
 14 10 2016  19 55  -15.5090 26124.2   3393.9   7.4021 26343.8
 14 10 2016  19 56  -15.5090 26124.5   3393.7   7.4016 26344.1
 14 10 2016  19 57  -15.5091 26125.0   3393.8   7.4016 26344.5
 14 10 2016  19 58  -15.5091 26125.6   3392.7   7.3992 26345.0
 14 10 2016  19 59  -15.5087 26126.4   3394.1   7.4018 26345.9
 14 10 2016  20 00  -15.5084 26127.1   3394.6   7.4028 26346.7
 14 10 2016  20 01  -15.5085 26127.3   3393.5   7.4004 26346.8
 14 10 2016  20 02  -15.5080 26127.6   3393.0   7.3992 26347.0
 14 10 2016  20 03  -15.5082 26127.8   3392.7   7.3984 26347.1
 14 10 2016  20 04  -15.5089 26127.5   3393.4   7.4000 26347.0
 14 10 2016  20 05  -15.5083 26127.6   3392.0   7.3970 26346.9
 14 10 2016  20 06  -15.5085 26127.4   3391.5   7.3960 26346.6
 14 10 2016  20 07  -15.5085 26127.2   3392.5   7.3983 26346.5
 14 10 2016  20 08  -15.5087 26127.3   3391.9   7.3969 26346.6
 14 10 2016  20 09  -15.5087 26127.8   3391.4   7.3957 26346.9
 14 10 2016  20 10  -15.5083 26128.0   3391.6   7.3961 26347.2
 14 10 2016  20 11  -15.5085 26127.8   3393.0   7.3992 26347.2
 14 10 2016  20 12  -15.5090 26128.0   3391.5   7.3958 26347.2
 14 10 2016  20 13  -15.5092 26127.9   3391.5   7.3958 26347.1
 14 10 2016  20 14  -15.5092 26127.9   3391.7   7.3962 26347.1
 14 10 2016  20 15  -15.5103 26127.7   3390.7   7.3941 26346.8
 14 10 2016  20 16  -15.5109 26127.3   3390.0   7.3928 26346.3
 14 10 2016  20 17  -15.5112 26126.9   3389.6   7.3921 26345.9
 14 10 2016  20 18  -15.5119 26126.5   3389.5   7.3920 26345.5
 14 10 2016  20 19  -15.5121 26126.4   3390.0   7.3929 26345.4
 14 10 2016  20 20  -15.5119 26126.7   3390.5   7.3940 26345.8
 14 10 2016  20 21  -15.5123 26127.0   3390.6   7.3941 26346.1
 14 10 2016  20 22  -15.5134 26127.0   3389.4   7.3915 26346.0
 14 10 2016  20 23  -15.5136 26127.2   3389.9   7.3927 26346.1
 14 10 2016  20 24  -15.5134 26127.5   3389.8   7.3922 26346.5
 14 10 2016  20 25  -15.5134 26127.7   3389.6   7.3918 26346.6
 14 10 2016  20 26  -15.5137 26127.8   3389.5   7.3915 26346.7
 14 10 2016  20 27  -15.5146 26127.7   3389.0   7.3906 26346.5
 14 10 2016  20 28  -15.5144 26127.9   3388.7   7.3898 26346.7
 14 10 2016  20 29  -15.5142 26128.1   3388.7   7.3898 26346.9
 14 10 2016  20 30  -15.5146 26127.9   3390.0   7.3926 26346.9
 14 10 2016  20 31  -15.5145 26128.2   3389.8   7.3920 26347.1
 14 10 2016  20 32  -15.5140 26128.8   3389.4   7.3910 26347.7
 14 10 2016  20 33  -15.5139 26129.2   3389.6   7.3913 26348.2
 14 10 2016  20 34  -15.5141 26129.2   3390.0   7.3923 26348.2
 14 10 2016  20 35  -15.5144 26129.3   3389.1   7.3904 26348.2
 14 10 2016  20 36  -15.5139 26129.5   3389.4   7.3909 26348.4
 14 10 2016  20 37  -15.5136 26129.3   3389.6   7.3915 26348.2
 14 10 2016  20 38  -15.5139 26128.8   3388.9   7.3900 26347.7
 14 10 2016  20 39  -15.5140 26128.5   3388.7   7.3897 26347.3
 14 10 2016  20 40  -15.5145 26128.3   3388.5   7.3892 26347.2
 14 10 2016  20 41  -15.5145 26128.6   3388.3   7.3888 26347.4
 14 10 2016  20 42  -15.5152 26128.8   3387.8   7.3877 26347.5
 14 10 2016  20 43  -15.5152 26129.2   3389.8   7.3918 26348.1
 14 10 2016  20 44  -15.5156 26129.5   3390.1   7.3924 26348.5
 14 10 2016  20 45  -15.5156 26130.0   3388.6   7.3890 26348.8
 14 10 2016  20 46  -15.5165 26130.0   3388.8   7.3895 26348.8
 14 10 2016  20 47  -15.5168 26130.2   3388.8   7.3895 26349.0
 14 10 2016  20 48  -15.5170 26130.3   3389.5   7.3908 26349.2
 14 10 2016  20 49  -15.5182 26130.2   3388.7   7.3893 26349.0
 14 10 2016  20 50  -15.5187 26129.9   3388.4   7.3887 26348.7
 14 10 2016  20 51  -15.5196 26129.1   3389.0   7.3902 26348.0
 14 10 2016  20 52  -15.5196 26128.6   3388.5   7.3892 26347.4
 14 10 2016  20 53  -15.5204 26127.6   3388.2   7.3887 26346.4
 14 10 2016  20 54  -15.5218 26126.9   3386.9   7.3862 26345.5
 14 10 2016  20 55  -15.5215 26126.3   3388.3   7.3894 26345.1
 14 10 2016  20 56  -15.5225 26125.6   3387.9   7.3888 26344.3
 14 10 2016  20 57  -15.5235 26125.0   3388.8   7.3908 26343.8
 14 10 2016  20 58  -15.5234 26124.5   3389.5   7.3924 26343.5
 14 10 2016  20 59  -15.5230 26124.2   3388.5   7.3905 26343.0
 14 10 2016  21 00  -15.5228 26123.7   3389.8   7.3933 26342.7
 14 10 2016  21 01  -15.5228 26123.4   3390.1   7.3940 26342.5
 14 10 2016  21 02  -15.5230 26123.5   3388.6   7.3908 26342.3
 14 10 2016  21 03  -15.5222 26123.3   3389.1   7.3919 26342.2
 14 10 2016  21 04  -15.5215 26123.0   3390.1   7.3943 26342.1
 14 10 2016  21 05  -15.5208 26122.8   3390.6   7.3954 26341.9
 14 10 2016  21 06  -15.5207 26122.8   3390.4   7.3949 26341.9
 14 10 2016  21 07  -15.5208 26122.6   3390.4   7.3950 26341.7
 14 10 2016  21 08  -15.5202 26122.7   3390.7   7.3957 26341.9
 14 10 2016  21 09  -15.5201 26122.5   3390.7   7.3957 26341.7
 14 10 2016  21 10  -15.5198 26122.6   3390.5   7.3953 26341.7
 14 10 2016  21 11  -15.5194 26122.6   3390.7   7.3956 26341.8
 14 10 2016  21 12  -15.5194 26122.5   3391.6   7.3976 26341.7
 14 10 2016  21 13  -15.5192 26122.6   3391.1   7.3964 26341.8
 14 10 2016  21 14  -15.5183 26122.9   3392.1   7.3986 26342.3
 14 10 2016  21 15  -15.5182 26123.1   3392.3   7.3989 26342.4
 14 10 2016  21 16  -15.5181 26123.2   3392.4   7.3992 26342.6
 14 10 2016  21 17  -15.5173 26124.0   3392.6   7.3993 26343.3
 14 10 2016  21 18  -15.5173 26125.0   3392.6   7.3991 26344.4
 14 10 2016  21 19  -15.5166 26125.7   3393.4   7.4005 26345.2
 14 10 2016  21 20  -15.5154 26126.3   3394.7   7.4033 26345.9
 14 10 2016  21 21  -15.5151 26126.5   3394.2   7.4021 26346.1
 14 10 2016  21 22  -15.5158 26126.2   3392.5   7.3985 26345.6
 14 10 2016  21 23  -15.5158 26126.0   3392.4   7.3984 26345.3
 14 10 2016  21 24  -15.5165 26125.7   3392.6   7.3989 26345.1
 14 10 2016  21 25  -15.5164 26125.8   3392.4   7.3984 26345.1
 14 10 2016  21 26  -15.5168 26125.6   3392.9   7.3995 26344.9
 14 10 2016  21 27  -15.5175 26125.3   3393.9   7.4018 26344.8
 14 10 2016  21 28  -15.5178 26125.1   3394.3   7.4026 26344.7
 14 10 2016  21 29  -15.5179 26125.2   3394.2   7.4024 26344.8
 14 10 2016  21 30  -15.5177 26125.1   3393.9   7.4018 26344.6
 14 10 2016  21 31  -15.5185 26124.7   3393.1   7.4002 26344.1
 14 10 2016  21 32  -15.5180 26124.5   3393.9   7.4021 26344.0
 14 10 2016  21 33  -15.5185 26124.0   3394.3   7.4029 26343.6
 14 10 2016  21 34  -15.5181 26123.7   3393.5   7.4013 26343.2
 14 10 2016  21 35  -15.5187 26123.1   3393.8   7.4021 26342.6
 14 10 2016  21 36  -15.5182 26122.9   3393.6   7.4018 26342.4
 14 10 2016  21 37  -15.5190 26122.3   3393.5   7.4017 26341.8
 14 10 2016  21 38  -15.5187 26121.9   3393.8   7.4025 26341.4
 14 10 2016  21 39  -15.5191 26121.5   3393.3   7.4016 26341.0
 14 10 2016  21 40  -15.5192 26121.3   3393.6   7.4023 26340.8
 14 10 2016  21 41  -15.5187 26121.1   3394.2   7.4036 26340.7
 14 10 2016  21 42  -15.5192 26120.8   3393.7   7.4027 26340.4
 14 10 2016  21 43  -15.5184 26120.8   3394.2   7.4038 26340.4
 14 10 2016  21 44  -15.5193 26120.5   3393.7   7.4027 26340.1
 14 10 2016  21 45  -15.5192 26120.3   3393.9   7.4032 26339.8
 14 10 2016  21 46  -15.5192 26120.0   3394.1   7.4037 26339.6
 14 10 2016  21 47  -15.5192 26119.7   3394.7   7.4051 26339.4
 14 10 2016  21 48  -15.5187 26119.6   3394.5   7.4046 26339.3
 14 10 2016  21 49  -15.5191 26119.5   3394.7   7.4051 26339.2
 14 10 2016  21 50  -15.5184 26119.7   3394.5   7.4046 26339.3
 14 10 2016  21 51  -15.5183 26119.6   3394.4   7.4044 26339.3
 14 10 2016  21 52  -15.5182 26119.5   3395.1   7.4061 26339.3
 14 10 2016  21 53  -15.5179 26119.4   3395.6   7.4071 26339.2
 14 10 2016  21 54  -15.5178 26119.5   3395.4   7.4066 26339.2
 14 10 2016  21 55  -15.5178 26119.5   3394.8   7.4052 26339.2
 14 10 2016  21 56  -15.5177 26119.5   3395.6   7.4070 26339.3
 14 10 2016  21 57  -15.5174 26119.7   3395.6   7.4071 26339.5
 14 10 2016  21 58  -15.5168 26119.7   3395.8   7.4075 26339.5
 14 10 2016  21 59  -15.5169 26119.6   3396.0   7.4078 26339.4
 14 10 2016  22 00  -15.5158 26119.6   3397.0   7.4100 26339.6
 14 10 2016  22 01  -15.5159 26119.4   3397.2   7.4105 26339.4
 14 10 2016  22 02  -15.5150 26119.5   3396.7   7.4095 26339.5
 14 10 2016  22 03  -15.5151 26119.4   3395.8   7.4076 26339.3
 14 10 2016  22 04  -15.5148 26119.3   3396.5   7.4091 26339.2
 14 10 2016  22 05  -15.5147 26119.1   3396.3   7.4088 26339.0
 14 10 2016  22 06  -15.5143 26119.0   3396.2   7.4085 26338.9
 14 10 2016  22 07  -15.5133 26119.1   3395.8   7.4076 26338.9
 14 10 2016  22 08  -15.5132 26118.9   3396.7   7.4097 26338.9
 14 10 2016  22 09  -15.5141 26118.6   3396.4   7.4089 26338.5
 14 10 2016  22 10  -15.5142 26118.7   3395.2   7.4065 26338.5
 14 10 2016  22 11  -15.5146 26118.6   3395.3   7.4067 26338.4
 14 10 2016  22 12  -15.5139 26118.6   3396.7   7.4096 26338.6
 14 10 2016  22 13  -15.5145 26118.6   3396.6   7.4095 26338.6
 14 10 2016  22 14  -15.5139 26119.0   3396.4   7.4090 26338.9
 14 10 2016  22 15  -15.5137 26119.3   3395.6   7.4071 26339.1
 14 10 2016  22 16  -15.5138 26119.2   3396.5   7.4092 26339.1
 14 10 2016  22 17  -15.5135 26119.1   3397.0   7.4102 26339.1
 14 10 2016  22 18  -15.5132 26119.2   3397.8   7.4120 26339.2
 14 10 2016  22 19  -15.5130 26119.2   3398.3   7.4130 26339.4
 14 10 2016  22 20  -15.5125 26119.7   3396.8   7.4096 26339.6
 14 10 2016  22 21  -15.5132 26119.6   3397.0   7.4101 26339.6
 14 10 2016  22 22  -15.5137 26119.6   3397.0   7.4100 26339.6
 14 10 2016  22 23  -15.5129 26119.9   3397.9   7.4120 26340.0
 14 10 2016  22 24  -15.5128 26120.4   3396.7   7.4092 26340.3
 14 10 2016  22 25  -15.5117 26120.7   3398.2   7.4123 26340.8
 14 10 2016  22 26  -15.5123 26121.0   3397.9   7.4115 26341.1
 14 10 2016  22 27  -15.5127 26121.3   3396.8   7.4092 26341.2
 14 10 2016  22 28  -15.5125 26121.5   3397.8   7.4113 26341.6
 14 10 2016  22 29  -15.5118 26122.0   3397.0   7.4095 26341.9
 14 10 2016  22 30  -15.5104 26122.3   3398.8   7.4132 26342.4
 14 10 2016  22 31  -15.5110 26122.4   3397.4   7.4102 26342.4
 14 10 2016  22 32  -15.5108 26122.5   3398.2   7.4117 26342.6
 14 10 2016  22 33  -15.5106 26122.7   3397.8   7.4108 26342.8
 14 10 2016  22 34  -15.5104 26122.8   3397.8   7.4108 26342.9
 14 10 2016  22 35  -15.5111 26122.7   3397.8   7.4108 26342.8
 14 10 2016  22 36  -15.5108 26122.9   3397.3   7.4098 26342.9
 14 10 2016  22 37  -15.5108 26122.8   3397.5   7.4103 26342.9
 14 10 2016  22 38  -15.5117 26122.8   3396.6   7.4082 26342.7
 14 10 2016  22 39  -15.5109 26123.0   3397.6   7.4105 26343.0
 14 10 2016  22 40  -15.5117 26122.8   3397.9   7.4110 26342.9
 14 10 2016  22 41  -15.5116 26122.9   3398.0   7.4114 26343.0
 14 10 2016  22 42  -15.5106 26123.1   3398.5   7.4124 26343.3
 14 10 2016  22 43  -15.5102 26123.4   3397.5   7.4100 26343.5
 14 10 2016  22 44  -15.5104 26123.5   3397.9   7.4109 26343.5
 14 10 2016  22 45  -15.5103 26123.6   3398.2   7.4116 26343.7
 14 10 2016  22 46  -15.5109 26123.3   3398.7   7.4127 26343.5
 14 10 2016  22 47  -15.5112 26123.3   3398.4   7.4119 26343.4
 14 10 2016  22 48  -15.5109 26123.7   3397.4   7.4097 26343.7
 14 10 2016  22 49  -15.5105 26124.0   3396.9   7.4087 26343.9
 14 10 2016  22 50  -15.5110 26123.9   3397.6   7.4102 26344.0
 14 10 2016  22 51  -15.5107 26124.1   3398.7   7.4124 26344.3
 14 10 2016  22 52  -15.5106 26124.4   3398.6   7.4122 26344.5
 14 10 2016  22 53  -15.5109 26124.5   3398.3   7.4114 26344.6
 14 10 2016  22 54  -15.5111 26124.6   3399.1   7.4131 26344.8
 14 10 2016  22 55  -15.5105 26124.9   3399.5   7.4140 26345.2
 14 10 2016  22 56  -15.5110 26125.1   3399.0   7.4128 26345.3
 14 10 2016  22 57  -15.5100 26125.5   3399.1   7.4130 26345.7
 14 10 2016  22 58  -15.5105 26125.5   3398.8   7.4122 26345.7
 14 10 2016  22 59  -15.5104 26125.7   3398.9   7.4124 26345.8
 14 10 2016  23 00  -15.5107 26125.7   3399.0   7.4127 26345.9
 14 10 2016  23 01  -15.5105 26126.0   3399.5   7.4135 26346.2
 14 10 2016  23 02  -15.5108 26126.3   3399.6   7.4138 26346.5
 14 10 2016  23 03  -15.5108 26126.8   3398.7   7.4117 26346.9
 14 10 2016  23 04  -15.5108 26127.2   3399.8   7.4140 26347.5
 14 10 2016  23 05  -15.5112 26127.5   3399.1   7.4124 26347.7
 14 10 2016  23 06  -15.5103 26128.2   3398.3   7.4104 26348.3
 14 10 2016  23 07  -15.5095 26128.4   3400.6   7.4153 26348.8
 14 10 2016  23 08  -15.5102 26128.6   3400.5   7.4151 26349.0
 14 10 2016  23 09  -15.5089 26129.6   3399.8   7.4133 26349.8
 14 10 2016  23 10  -15.5093 26129.8   3399.0   7.4115 26350.0
 14 10 2016  23 11  -15.5096 26129.8   3399.2   7.4120 26350.0
 14 10 2016  23 12  -15.5093 26129.8   3400.1   7.4138 26350.1
 14 10 2016  23 13  -15.5092 26129.9   3399.7   7.4129 26350.2
 14 10 2016  23 14  -15.5093 26129.5   3399.9   7.4135 26349.8
 14 10 2016  23 15  -15.5097 26129.1   3399.2   7.4120 26349.2
 14 10 2016  23 16  -15.5102 26128.5   3398.9   7.4116 26348.6
 14 10 2016  23 17  -15.5103 26128.0   3398.6   7.4111 26348.1
 14 10 2016  23 18  -15.5102 26127.3   3399.0   7.4122 26347.5
 14 10 2016  23 19  -15.5101 26126.9   3399.8   7.4140 26347.2
 14 10 2016  23 20  -15.5115 26126.4   3398.8   7.4121 26346.6
 14 10 2016  23 21  -15.5118 26126.4   3397.6   7.4095 26346.4
 14 10 2016  23 22  -15.5107 26126.6   3398.7   7.4118 26346.7
 14 10 2016  23 23  -15.5105 26126.7   3400.0   7.4145 26347.0
 14 10 2016  23 24  -15.5104 26127.2   3398.4   7.4110 26347.3
 14 10 2016  23 25  -15.5098 26127.3   3399.6   7.4135 26347.5
 14 10 2016  23 26  -15.5109 26127.4   3398.6   7.4114 26347.5
 14 10 2016  23 27  -15.5101 26127.5   3400.0   7.4144 26347.8
 14 10 2016  23 28  -15.5101 26127.6   3400.3   7.4149 26347.9
 14 10 2016  23 29  -15.5103 26127.8   3399.8   7.4139 26348.0
 14 10 2016  23 30  -15.5102 26127.8   3400.1   7.4144 26348.1
 14 10 2016  23 31  -15.5100 26128.0   3400.5   7.4152 26348.3
 14 10 2016  23 32  -15.5098 26128.1   3400.3   7.4148 26348.4
 14 10 2016  23 33  -15.5097 26128.1   3400.3   7.4147 26348.5
 14 10 2016  23 34  -15.5094 26128.1   3400.1   7.4143 26348.4
 14 10 2016  23 35  -15.5097 26127.9   3400.2   7.4146 26348.2
 14 10 2016  23 36  -15.5096 26127.8   3399.9   7.4141 26348.1
 14 10 2016  23 37  -15.5092 26127.6   3400.6   7.4156 26347.9
 14 10 2016  23 38  -15.5094 26127.3   3400.1   7.4145 26347.6
 14 10 2016  23 39  -15.5098 26126.7   3400.7   7.4161 26347.1
 14 10 2016  23 40  -15.5089 26126.8   3399.7   7.4138 26347.0
 14 10 2016  23 41  -15.5090 26126.5   3400.9   7.4165 26346.9
 14 10 2016  23 42  -15.5082 26126.5   3400.6   7.4158 26346.9
 14 10 2016  23 43  -15.5094 26126.4   3398.8   7.4121 26346.5
 14 10 2016  23 44  -15.5098 26126.1   3399.6   7.4138 26346.3
 14 10 2016  23 45  -15.5083 26126.1   3401.6   7.4180 26346.6
 14 10 2016  23 46  -15.5083 26126.3   3399.8   7.4142 26346.6
 14 10 2016  23 47  -15.5083 26126.0   3401.3   7.4175 26346.5
 14 10 2016  23 48  -15.5080 26126.0   3401.7   7.4184 26346.6
 14 10 2016  23 49  -15.5078 26126.3   3401.6   7.4180 26346.8
 14 10 2016  23 50  -15.5074 26126.5   3401.8   7.4184 26347.0
 14 10 2016  23 51  -15.5071 26126.6   3401.1   7.4170 26347.1
 14 10 2016  23 52  -15.5084 26126.6   3399.3   7.4130 26346.8
 14 10 2016  23 53  -15.5076 26126.6   3400.4   7.4154 26347.0
 14 10 2016  23 54  -15.5081 26126.3   3401.3   7.4175 26346.8
 14 10 2016  23 55  -15.5087 26126.3   3399.8   7.4141 26346.5
 14 10 2016  23 56  -15.5075 26126.5   3399.9   7.4143 26346.8
 14 10 2016  23 57  -15.5078 26126.1   3401.9   7.4188 26346.6
 14 10 2016  23 58  -15.5083 26126.1   3399.4   7.4134 26346.4
 14 10 2016  23 59  -15.5080 26126.0   3400.9   7.4167 26346.4
