Manaus - AM                    UNIVAP-03  <293> 1 Min. Reported data

 DD MM YYYY  HH MM   D(Deg)  H(nT)   Z(nT)   I(Deg)   F(nT)

 19 10 2016  00 00  -15.4974 26138.6   3404.2   7.4201 26359.3
 19 10 2016  00 01  -15.4965 26138.6   3404.8   7.4216 26359.4
 19 10 2016  00 02  -15.4962 26138.4   3403.9   7.4197 26359.1
 19 10 2016  00 03  -15.4960 26137.9   3403.9   7.4197 26358.6
 19 10 2016  00 04  -15.4960 26137.8   3404.0   7.4200 26358.6
 19 10 2016  00 05  -15.4963 26138.2   3403.6   7.4190 26358.8
 19 10 2016  00 06  -15.4958 26138.5   3403.8   7.4195 26359.2
 19 10 2016  00 07  -15.4960 26138.4   3404.4   7.4208 26359.1
 19 10 2016  00 08  -15.4960 26137.9   3404.1   7.4202 26358.7
 19 10 2016  00 09  -15.4964 26137.6   3402.4   7.4166 26358.1
 19 10 2016  00 10  -15.4953 26137.5   3403.7   7.4194 26358.2
 19 10 2016  00 11  -15.4967 26137.4   3403.3   7.4187 26358.0
 19 10 2016  00 12  -15.4975 26137.3   3403.2   7.4185 26357.9
 19 10 2016  00 13  -15.4976 26137.2   3402.6   7.4171 26357.8
 19 10 2016  00 14  -15.4995 26136.9   3402.3   7.4166 26357.4
 19 10 2016  00 15  -15.5007 26137.1   3403.2   7.4184 26357.7
 19 10 2016  00 16  -15.5006 26137.6   3403.7   7.4194 26358.3
 19 10 2016  00 17  -15.5010 26137.0   3403.3   7.4188 26357.6
 19 10 2016  00 18  -15.5019 26136.2   3403.2   7.4188 26356.8
 19 10 2016  00 19  -15.5023 26136.3   3402.2   7.4165 26356.8
 19 10 2016  00 20  -15.5037 26136.5   3401.1   7.4142 26356.8
 19 10 2016  00 21  -15.5027 26136.5   3403.5   7.4193 26357.1
 19 10 2016  00 22  -15.5032 26136.0   3404.3   7.4213 26356.8
 19 10 2016  00 23  -15.5044 26135.4   3402.1   7.4167 26355.9
 19 10 2016  00 24  -15.5027 26135.0   3402.9   7.4184 26355.6
 19 10 2016  00 25  -15.5028 26133.7   3402.6   7.4182 26354.3
 19 10 2016  00 26  -15.5036 26133.4   3402.6   7.4182 26354.0
 19 10 2016  00 27  -15.5044 26133.5   3403.0   7.4190 26354.2
 19 10 2016  00 28  -15.5050 26133.7   3402.8   7.4186 26354.3
 19 10 2016  00 29  -15.5049 26134.3   3403.2   7.4193 26355.0
 19 10 2016  00 30  -15.5059 26134.6   3402.5   7.4176 26355.2
 19 10 2016  00 31  -15.5061 26135.1   3402.6   7.4178 26355.7
 19 10 2016  00 32  -15.5060 26135.1   3404.3   7.4215 26355.9
 19 10 2016  00 33  -15.5061 26135.1   3403.9   7.4205 26355.8
 19 10 2016  00 34  -15.5059 26135.0   3402.9   7.4184 26355.6
 19 10 2016  00 35  -15.5052 26134.9   3403.4   7.4196 26355.6
 19 10 2016  00 36  -15.5033 26134.9   3403.1   7.4189 26355.5
 19 10 2016  00 37  -15.5037 26134.0   3402.1   7.4170 26354.5
 19 10 2016  00 38  -15.5050 26133.0   3401.2   7.4153 26353.4
 19 10 2016  00 39  -15.5047 26132.4   3402.7   7.4187 26353.0
 19 10 2016  00 40  -15.5049 26132.4   3403.7   7.4208 26353.1
 19 10 2016  00 41  -15.5054 26132.7   3401.9   7.4168 26353.2
 19 10 2016  00 42  -15.5048 26132.8   3403.5   7.4203 26353.5
 19 10 2016  00 43  -15.5048 26132.7   3403.0   7.4194 26353.3
 19 10 2016  00 44  -15.5044 26132.7   3403.2   7.4197 26353.4
 19 10 2016  00 45  -15.5038 26132.7   3404.0   7.4215 26353.5
 19 10 2016  00 46  -15.5041 26132.7   3402.6   7.4185 26353.3
 19 10 2016  00 47  -15.5038 26132.4   3403.8   7.4212 26353.1
 19 10 2016  00 48  -15.5035 26132.1   3404.6   7.4230 26353.0
 19 10 2016  00 49  -15.5039 26132.3   3403.3   7.4200 26353.0
 19 10 2016  00 50  -15.5048 26132.1   3403.3   7.4202 26352.8
 19 10 2016  00 51  -15.5045 26132.3   3402.9   7.4193 26352.9
 19 10 2016  00 52  -15.5054 26131.8   3402.9   7.4194 26352.4
 19 10 2016  00 53  -15.5040 26132.0   3403.4   7.4203 26352.7
 19 10 2016  00 54  -15.5045 26131.5   3403.6   7.4209 26352.2
 19 10 2016  00 55  -15.5057 26131.1   3402.2   7.4181 26351.6
 19 10 2016  00 56  -15.5033 26131.2   3403.8   7.4215 26351.9
 19 10 2016  00 57  -15.5038 26130.7   3403.5   7.4209 26351.4
 19 10 2016  00 58  -15.5040 26130.2   3403.6   7.4212 26350.9
 19 10 2016  00 59  -15.5041 26130.6   3401.2   7.4160 26351.0
 19 10 2016  01 00  -15.5044 26130.3   3403.4   7.4208 26351.0
 19 10 2016  01 01  -15.5042 26130.8   3402.3   7.4184 26351.4
 19 10 2016  01 02  -15.5041 26130.5   3402.8   7.4194 26351.1
 19 10 2016  01 03  -15.5043 26130.4   3401.5   7.4167 26350.8
 19 10 2016  01 04  -15.5049 26129.8   3402.9   7.4198 26350.5
 19 10 2016  01 05  -15.5043 26129.8   3403.3   7.4209 26350.5
 19 10 2016  01 06  -15.5031 26130.2   3403.2   7.4205 26350.9
 19 10 2016  01 07  -15.5044 26129.7   3402.8   7.4197 26350.3
 19 10 2016  01 08  -15.5049 26129.4   3401.6   7.4173 26349.9
 19 10 2016  01 09  -15.5043 26129.2   3402.8   7.4199 26349.8
 19 10 2016  01 10  -15.5038 26129.4   3402.1   7.4183 26350.0
 19 10 2016  01 11  -15.5029 26129.4   3403.4   7.4212 26350.2
 19 10 2016  01 12  -15.5043 26129.2   3402.3   7.4189 26349.8
 19 10 2016  01 13  -15.5043 26129.2   3403.3   7.4208 26349.9
 19 10 2016  01 14  -15.5051 26129.5   3402.5   7.4192 26350.1
 19 10 2016  01 15  -15.5039 26129.7   3405.1   7.4248 26350.6
 19 10 2016  01 16  -15.5045 26130.4   3402.0   7.4178 26350.9
 19 10 2016  01 17  -15.5047 26130.3   3403.8   7.4217 26351.1
 19 10 2016  01 18  -15.5044 26131.0   3403.7   7.4213 26351.8
 19 10 2016  01 19  -15.5047 26131.0   3405.1   7.4243 26352.0
 19 10 2016  01 20  -15.5047 26131.2   3403.6   7.4209 26351.9
 19 10 2016  01 21  -15.5038 26131.7   3403.5   7.4207 26352.4
 19 10 2016  01 22  -15.5024 26131.3   3405.5   7.4251 26352.3
 19 10 2016  01 23  -15.5015 26131.4   3404.4   7.4228 26352.3
 19 10 2016  01 24  -15.5022 26131.8   3402.1   7.4177 26352.3
 19 10 2016  01 25  -15.5024 26131.5   3403.4   7.4206 26352.2
 19 10 2016  01 26  -15.5008 26131.8   3404.5   7.4228 26352.7
 19 10 2016  01 27  -15.5030 26131.4   3403.8   7.4214 26352.1
 19 10 2016  01 28  -15.5025 26131.7   3402.0   7.4175 26352.2
 19 10 2016  01 29  -15.5037 26131.1   3402.4   7.4185 26351.7
 19 10 2016  01 30  -15.5026 26131.4   3403.7   7.4212 26352.2
 19 10 2016  01 31  -15.5048 26131.1   3401.4   7.4163 26351.5
 19 10 2016  01 32  -15.5042 26131.2   3402.1   7.4177 26351.7
 19 10 2016  01 33  -15.5045 26131.2   3401.3   7.4160 26351.6
 19 10 2016  01 34  -15.5037 26130.9   3404.0   7.4220 26351.6
 19 10 2016  01 35  -15.5042 26131.0   3402.8   7.4194 26351.6
 19 10 2016  01 36  -15.5030 26131.2   3403.8   7.4214 26352.0
 19 10 2016  01 37  -15.5048 26130.9   3402.0   7.4176 26351.4
 19 10 2016  01 38  -15.5043 26130.9   3402.8   7.4193 26351.5
 19 10 2016  01 39  -15.5033 26131.5   3403.7   7.4211 26352.2
 19 10 2016  01 40  -15.5042 26131.5   3402.7   7.4189 26352.1
 19 10 2016  01 41  -15.5045 26131.5   3403.2   7.4201 26352.2
 19 10 2016  01 42  -15.5031 26131.9   3403.7   7.4211 26352.6
 19 10 2016  01 43  -15.5037 26131.9   3403.3   7.4203 26352.6
 19 10 2016  01 44  -15.5019 26132.1   3403.6   7.4207 26352.8
 19 10 2016  01 45  -15.5015 26131.7   3403.4   7.4203 26352.4
 19 10 2016  01 46  -15.5022 26131.3   3402.5   7.4187 26351.9
 19 10 2016  01 47  -15.5042 26130.5   3402.1   7.4180 26351.0
 19 10 2016  01 48  -15.5037 26130.4   3401.8   7.4174 26350.9
 19 10 2016  01 49  -15.5043 26129.9   3401.7   7.4173 26350.4
 19 10 2016  01 50  -15.5035 26129.5   3403.0   7.4202 26350.2
 19 10 2016  01 51  -15.5039 26129.0   3404.0   7.4224 26349.8
 19 10 2016  01 52  -15.5040 26128.8   3403.6   7.4216 26349.5
 19 10 2016  01 53  -15.5034 26129.3   3401.6   7.4173 26349.8
 19 10 2016  01 54  -15.5049 26128.6   3401.8   7.4179 26349.1
 19 10 2016  01 55  -15.5054 26128.2   3401.8   7.4181 26348.7
 19 10 2016  01 56  -15.5062 26127.9   3402.0   7.4184 26348.5
 19 10 2016  01 57  -15.5048 26128.2   3402.6   7.4197 26348.8
 19 10 2016  01 58  -15.5062 26127.6   3401.9   7.4184 26348.1
 19 10 2016  01 59  -15.5066 26127.2   3402.4   7.4197 26347.8
 19 10 2016  02 00  -15.5064 26126.9   3402.1   7.4189 26347.5
 19 10 2016  02 01  -15.5066 26126.6   3402.1   7.4190 26347.2
 19 10 2016  02 02  -15.5072 26126.4   3401.5   7.4179 26346.9
 19 10 2016  02 03  -15.5055 26126.4   3403.6   7.4224 26347.2
 19 10 2016  02 04  -15.5056 26126.3   3403.3   7.4218 26347.1
 19 10 2016  02 05  -15.5070 26125.8   3402.7   7.4206 26346.5
 19 10 2016  02 06  -15.5070 26125.5   3404.1   7.4237 26346.3
 19 10 2016  02 07  -15.5083 26126.0   3401.7   7.4183 26346.6
 19 10 2016  02 08  -15.5091 26125.8   3403.9   7.4231 26346.6
 19 10 2016  02 09  -15.5087 26126.7   3402.6   7.4202 26347.3
 19 10 2016  02 10  -15.5108 26126.5   3403.2   7.4215 26347.3
 19 10 2016  02 11  -15.5111 26127.3   3403.3   7.4215 26348.0
 19 10 2016  02 12  -15.5091 26127.8   3402.4   7.4194 26348.4
 19 10 2016  02 13  -15.5066 26128.0   3405.7   7.4264 26349.0
 19 10 2016  02 14  -15.5078 26127.8   3403.4   7.4216 26348.5
 19 10 2016  02 15  -15.5065 26127.5   3404.1   7.4230 26348.3
 19 10 2016  02 16  -15.5075 26127.2   3402.3   7.4194 26347.8
 19 10 2016  02 17  -15.5077 26127.1   3402.3   7.4193 26347.7
 19 10 2016  02 18  -15.5060 26127.5   3402.6   7.4199 26348.2
 19 10 2016  02 19  -15.5075 26126.9   3401.4   7.4175 26347.4
 19 10 2016  02 20  -15.5055 26127.0   3402.9   7.4207 26347.6
 19 10 2016  02 21  -15.5062 26126.2   3403.1   7.4213 26346.9
 19 10 2016  02 22  -15.5048 26126.3   3402.2   7.4195 26346.9
 19 10 2016  02 23  -15.5069 26125.6   3401.1   7.4172 26346.1
 19 10 2016  02 24  -15.5057 26125.2   3403.7   7.4229 26345.9
 19 10 2016  02 25  -15.5049 26125.0   3403.6   7.4228 26345.8
 19 10 2016  02 26  -15.5044 26125.0   3403.2   7.4220 26345.7
 19 10 2016  02 27  -15.5061 26124.6   3401.7   7.4188 26345.1
 19 10 2016  02 28  -15.5064 26124.6   3400.8   7.4169 26345.1
 19 10 2016  02 29  -15.5056 26124.9   3401.2   7.4177 26345.4
 19 10 2016  02 30  -15.5054 26124.9   3401.1   7.4174 26345.4
 19 10 2016  02 31  -15.5044 26125.2   3401.5   7.4181 26345.7
 19 10 2016  02 32  -15.5040 26125.6   3401.7   7.4184 26346.1
 19 10 2016  02 33  -15.5024 26126.0   3405.0   7.4256 26347.0
 19 10 2016  02 34  -15.5018 26126.8   3405.1   7.4255 26347.8
 19 10 2016  02 35  -15.5028 26127.1   3404.2   7.4235 26348.0
 19 10 2016  02 36  -15.5011 26127.7   3405.5   7.4261 26348.7
 19 10 2016  02 37  -15.5018 26127.1   3405.6   7.4265 26348.1
 19 10 2016  02 38  -15.5011 26127.4   3405.6   7.4263 26348.4
 19 10 2016  02 39  -15.5035 26127.0   3402.1   7.4189 26347.6
 19 10 2016  02 40  -15.5016 26127.1   3403.6   7.4221 26347.8
 19 10 2016  02 41  -15.5018 26126.7   3404.1   7.4234 26347.6
 19 10 2016  02 42  -15.5025 26126.7   3402.8   7.4206 26347.4
 19 10 2016  02 43  -15.5037 26126.5   3403.5   7.4221 26347.2
 19 10 2016  02 44  -15.5028 26127.0   3403.6   7.4221 26347.8
 19 10 2016  02 45  -15.5047 26126.9   3401.6   7.4180 26347.4
 19 10 2016  02 46  -15.5034 26127.0   3403.3   7.4215 26347.7
 19 10 2016  02 47  -15.5026 26126.8   3404.4   7.4240 26347.7
 19 10 2016  02 48  -15.5033 26126.6   3402.7   7.4204 26347.2
 19 10 2016  02 49  -15.5045 26125.8   3403.6   7.4224 26346.6
 19 10 2016  02 50  -15.5039 26125.9   3404.2   7.4237 26346.8
 19 10 2016  02 51  -15.5032 26126.0   3404.5   7.4243 26346.9
 19 10 2016  02 52  -15.5020 26126.3   3404.2   7.4237 26347.1
 19 10 2016  02 53  -15.5035 26126.2   3402.2   7.4194 26346.8
 19 10 2016  02 54  -15.5031 26125.9   3404.1   7.4236 26346.7
 19 10 2016  02 55  -15.5019 26125.7   3404.7   7.4249 26346.7
 19 10 2016  02 56  -15.5040 26124.4   3403.3   7.4222 26345.1
 19 10 2016  02 57  -15.5035 26124.7   3403.5   7.4226 26345.4
 19 10 2016  02 58  -15.5029 26124.9   3402.6   7.4207 26345.5
 19 10 2016  02 59  -15.5030 26124.5   3403.1   7.4218 26345.2
 19 10 2016  03 00  -15.5044 26123.8   3403.0   7.4217 26344.5
 19 10 2016  03 01  -15.5044 26123.8   3401.8   7.4193 26344.3
 19 10 2016  03 02  -15.5033 26123.6   3403.9   7.4238 26344.4
 19 10 2016  03 03  -15.5045 26123.2   3401.8   7.4194 26343.8
 19 10 2016  03 04  -15.5040 26122.9   3403.2   7.4225 26343.7
 19 10 2016  03 05  -15.5050 26122.7   3401.7   7.4194 26343.3
 19 10 2016  03 06  -15.5041 26122.6   3403.9   7.4240 26343.4
 19 10 2016  03 07  -15.5042 26122.6   3404.3   7.4249 26343.5
 19 10 2016  03 08  -15.5036 26123.1   3403.8   7.4236 26343.9
 19 10 2016  03 09  -15.5038 26123.2   3402.8   7.4214 26343.9
 19 10 2016  03 10  -15.5037 26123.2   3403.4   7.4228 26344.0
 19 10 2016  03 11  -15.5057 26122.9   3402.8   7.4217 26343.6
 19 10 2016  03 12  -15.5045 26123.4   3403.0   7.4219 26344.1
 19 10 2016  03 13  -15.5044 26123.4   3404.9   7.4259 26344.4
 19 10 2016  03 14  -15.5032 26123.9   3403.8   7.4235 26344.7
 19 10 2016  03 15  -15.5050 26123.3   3403.5   7.4230 26344.1
 19 10 2016  03 16  -15.5051 26123.6   3403.7   7.4234 26344.4
 19 10 2016  03 17  -15.5028 26124.3   3405.1   7.4262 26345.3
 19 10 2016  03 18  -15.5024 26124.8   3404.6   7.4251 26345.7
 19 10 2016  03 19  -15.5028 26125.6   3403.1   7.4215 26346.3
 19 10 2016  03 20  -15.5038 26125.5   3402.9   7.4212 26346.2
 19 10 2016  03 21  -15.5038 26125.9   3403.5   7.4223 26346.6
 19 10 2016  03 22  -15.5039 26126.0   3403.4   7.4220 26346.8
 19 10 2016  03 23  -15.5028 26126.4   3403.9   7.4231 26347.2
 19 10 2016  03 24  -15.5032 26126.5   3403.7   7.4226 26347.3
 19 10 2016  03 25  -15.5035 26126.4   3403.3   7.4217 26347.2
 19 10 2016  03 26  -15.5042 26126.5   3403.0   7.4210 26347.2
 19 10 2016  03 27  -15.5032 26126.7   3404.0   7.4231 26347.5
 19 10 2016  03 28  -15.5036 26126.6   3403.7   7.4225 26347.3
 19 10 2016  03 29  -15.5038 26127.0   3402.9   7.4207 26347.6
 19 10 2016  03 30  -15.5036 26126.7   3404.1   7.4234 26347.5
 19 10 2016  03 31  -15.5026 26127.3   3404.1   7.4231 26348.1
 19 10 2016  03 32  -15.5032 26127.3   3403.7   7.4223 26348.1
 19 10 2016  03 33  -15.5031 26127.3   3404.3   7.4236 26348.1
 19 10 2016  03 34  -15.5032 26127.6   3403.7   7.4222 26348.4
 19 10 2016  03 35  -15.5037 26127.7   3403.6   7.4220 26348.5
 19 10 2016  03 36  -15.5023 26127.9   3404.8   7.4245 26348.8
 19 10 2016  03 37  -15.5035 26128.0   3403.1   7.4209 26348.6
 19 10 2016  03 38  -15.5027 26128.4   3402.6   7.4197 26349.0
 19 10 2016  03 39  -15.5018 26128.6   3404.7   7.4242 26349.5
 19 10 2016  03 40  -15.5027 26128.2   3403.9   7.4225 26349.0
 19 10 2016  03 41  -15.5035 26128.4   3402.6   7.4197 26349.1
 19 10 2016  03 42  -15.5030 26128.4   3404.6   7.4239 26349.2
 19 10 2016  03 43  -15.5029 26128.6   3404.9   7.4245 26349.5
 19 10 2016  03 44  -15.5041 26128.9   3401.7   7.4176 26349.4
 19 10 2016  03 45  -15.5041 26129.0   3401.9   7.4180 26349.6
 19 10 2016  03 46  -15.5030 26129.3   3403.2   7.4207 26350.0
 19 10 2016  03 47  -15.5039 26129.1   3404.2   7.4228 26349.9
 19 10 2016  03 48  -15.5029 26129.6   3405.4   7.4253 26350.6
 19 10 2016  03 49  -15.5025 26129.5   3405.1   7.4248 26350.5
 19 10 2016  03 50  -15.5020 26130.6   3405.2   7.4247 26351.5
 19 10 2016  03 51  -15.5020 26130.5   3405.4   7.4251 26351.4
 19 10 2016  03 52  -15.5027 26130.6   3405.0   7.4241 26351.5
 19 10 2016  03 53  -15.5028 26130.9   3404.0   7.4220 26351.7
 19 10 2016  03 54  -15.5029 26130.9   3404.5   7.4230 26351.7
 19 10 2016  03 55  -15.5024 26131.0   3403.4   7.4205 26351.7
 19 10 2016  03 56  -15.5031 26130.8   3403.6   7.4212 26351.6
 19 10 2016  03 57  -15.5032 26131.0   3403.3   7.4204 26351.7
 19 10 2016  03 58  -15.5030 26131.2   3402.7   7.4190 26351.8
 19 10 2016  03 59  -15.5030 26131.1   3402.8   7.4194 26351.8
 19 10 2016  04 00  -15.5031 26131.2   3403.3   7.4203 26351.9
 19 10 2016  04 01  -15.5042 26131.1   3402.2   7.4181 26351.7
 19 10 2016  04 02  -15.5024 26131.8   3402.6   7.4187 26352.4
 19 10 2016  04 03  -15.5025 26132.0   3402.2   7.4178 26352.5
 19 10 2016  04 04  -15.5039 26131.8   3401.4   7.4162 26352.2
 19 10 2016  04 05  -15.5028 26131.7   3404.2   7.4221 26352.5
 19 10 2016  04 06  -15.5026 26132.0   3402.8   7.4190 26352.6
 19 10 2016  04 07  -15.5021 26132.1   3403.5   7.4206 26352.8
 19 10 2016  04 08  -15.5037 26132.0   3400.9   7.4151 26352.4
 19 10 2016  04 09  -15.5027 26132.0   3403.1   7.4197 26352.6
 19 10 2016  04 10  -15.5026 26131.7   3403.2   7.4200 26352.4
 19 10 2016  04 11  -15.5036 26131.6   3400.8   7.4149 26351.9
 19 10 2016  04 12  -15.5031 26131.2   3401.9   7.4173 26351.7
 19 10 2016  04 13  -15.5024 26131.2   3402.3   7.4183 26351.7
 19 10 2016  04 14  -15.5021 26131.2   3401.9   7.4174 26351.7
 19 10 2016  04 15  -15.5035 26130.6   3402.7   7.4193 26351.2
 19 10 2016  04 16  -15.5033 26130.9   3401.4   7.4164 26351.4
 19 10 2016  04 17  -15.5040 26130.6   3401.6   7.4168 26351.0
 19 10 2016  04 18  -15.5036 26130.5   3401.4   7.4164 26351.0
 19 10 2016  04 19  -15.5027 26130.3   3402.6   7.4192 26350.9
 19 10 2016  04 20  -15.5027 26129.9   3403.3   7.4207 26350.6
 19 10 2016  04 21  -15.5036 26129.5   3401.5   7.4169 26349.9
 19 10 2016  04 22  -15.5032 26129.1   3402.1   7.4183 26349.7
 19 10 2016  04 23  -15.5016 26129.3   3403.0   7.4201 26350.0
 19 10 2016  04 24  -15.5025 26129.1   3402.5   7.4193 26349.7
 19 10 2016  04 25  -15.5027 26129.1   3401.6   7.4173 26349.6
 19 10 2016  04 26  -15.5023 26128.9   3402.0   7.4183 26349.4
 19 10 2016  04 27  -15.5012 26129.1   3402.7   7.4196 26349.8
 19 10 2016  04 28  -15.5013 26128.7   3403.6   7.4217 26349.4
 19 10 2016  04 29  -15.5028 26128.2   3402.2   7.4189 26348.7
 19 10 2016  04 30  -15.5032 26128.1   3401.9   7.4182 26348.6
 19 10 2016  04 31  -15.5044 26127.5   3401.3   7.4172 26348.0
 19 10 2016  04 32  -15.5038 26127.6   3400.2   7.4147 26347.9
 19 10 2016  04 33  -15.5045 26127.1   3399.9   7.4143 26347.4
 19 10 2016  04 34  -15.5032 26126.9   3401.7   7.4181 26347.4
 19 10 2016  04 35  -15.5039 26126.3   3402.0   7.4189 26346.8
 19 10 2016  04 36  -15.5042 26126.1   3400.6   7.4161 26346.5
 19 10 2016  04 37  -15.5031 26126.0   3402.7   7.4205 26346.6
 19 10 2016  04 38  -15.5049 26125.5   3401.1   7.4173 26345.9
 19 10 2016  04 39  -15.5051 26125.5   3399.9   7.4146 26345.8
 19 10 2016  04 40  -15.5054 26124.8   3402.2   7.4198 26345.4
 19 10 2016  04 41  -15.5044 26125.0   3401.9   7.4190 26345.5
 19 10 2016  04 42  -15.5060 26124.6   3400.0   7.4151 26344.9
 19 10 2016  04 43  -15.5051 26124.7   3400.4   7.4160 26345.1
 19 10 2016  04 44  -15.5068 26124.4   3399.9   7.4149 26344.7
 19 10 2016  04 45  -15.5062 26124.7   3401.7   7.4188 26345.2
 19 10 2016  04 46  -15.5056 26124.4   3402.8   7.4213 26345.0
 19 10 2016  04 47  -15.5056 26125.0   3401.9   7.4191 26345.6
 19 10 2016  04 48  -15.5066 26124.8   3401.5   7.4182 26345.3
 19 10 2016  04 49  -15.5083 26124.4   3400.6   7.4164 26344.8
 19 10 2016  04 50  -15.5070 26124.5   3403.4   7.4225 26345.3
 19 10 2016  04 51  -15.5069 26124.5   3402.8   7.4212 26345.2
 19 10 2016  04 52  -15.5074 26124.5   3400.6   7.4165 26344.9
 19 10 2016  04 53  -15.5088 26123.8   3400.2   7.4157 26344.2
 19 10 2016  04 54  -15.5092 26123.4   3400.0   7.4154 26343.7
 19 10 2016  04 55  -15.5074 26123.5   3402.9   7.4217 26344.2
 19 10 2016  04 56  -15.5090 26123.3   3400.8   7.4171 26343.8
 19 10 2016  04 57  -15.5074 26123.4   3403.1   7.4222 26344.2
 19 10 2016  04 58  -15.5084 26123.2   3403.9   7.4238 26344.0
 19 10 2016  04 59  -15.5091 26123.6   3401.4   7.4183 26344.1
 19 10 2016  05 00  -15.5071 26123.7   3403.8   7.4237 26344.5
 19 10 2016  05 01  -15.5078 26123.4   3404.3   7.4246 26344.3
 19 10 2016  05 02  -15.5082 26123.6   3401.3   7.4182 26344.1
 19 10 2016  05 03  -15.5088 26123.3   3401.1   7.4179 26343.8
 19 10 2016  05 04  -15.5077 26123.1   3404.3   7.4248 26344.0
 19 10 2016  05 05  -15.5085 26123.2   3402.4   7.4208 26343.9
 19 10 2016  05 06  -15.5071 26123.5   3403.6   7.4232 26344.3
 19 10 2016  05 07  -15.5080 26123.7   3402.2   7.4202 26344.3
 19 10 2016  05 08  -15.5069 26124.1   3402.8   7.4213 26344.8
 19 10 2016  05 09  -15.5067 26124.1   3403.0   7.4218 26344.8
 19 10 2016  05 10  -15.5074 26123.8   3403.2   7.4222 26344.5
 19 10 2016  05 11  -15.5072 26124.2   3401.9   7.4194 26344.8
 19 10 2016  05 12  -15.5083 26123.9   3402.0   7.4197 26344.4
 19 10 2016  05 13  -15.5066 26124.2   3403.5   7.4227 26344.9
 19 10 2016  05 14  -15.5076 26124.1   3402.7   7.4212 26344.8
 19 10 2016  05 15  -15.5089 26123.9   3402.4   7.4205 26344.6
 19 10 2016  05 16  -15.5084 26124.1   3403.7   7.4233 26344.9
 19 10 2016  05 17  -15.5095 26124.3   3403.4   7.4225 26345.0
 19 10 2016  05 18  -15.5090 26124.5   3404.2   7.4242 26345.3
 19 10 2016  05 19  -15.5089 26124.7   3402.8   7.4212 26345.3
 19 10 2016  05 20  -15.5089 26124.4   3403.5   7.4227 26345.1
 19 10 2016  05 21  -15.5091 26124.3   3402.8   7.4211 26345.0
 19 10 2016  05 22  -15.5100 26123.8   3403.7   7.4233 26344.6
 19 10 2016  05 23  -15.5103 26123.9   3402.0   7.4195 26344.5
 19 10 2016  05 24  -15.5112 26123.7   3402.1   7.4199 26344.3
 19 10 2016  05 25  -15.5107 26124.1   3401.6   7.4186 26344.7
 19 10 2016  05 26  -15.5106 26124.4   3402.0   7.4195 26344.9
 19 10 2016  05 27  -15.5103 26124.5   3402.9   7.4214 26345.2
 19 10 2016  05 28  -15.5087 26124.9   3405.2   7.4261 26345.9
 19 10 2016  05 29  -15.5095 26125.1   3403.2   7.4218 26345.8
 19 10 2016  05 30  -15.5084 26125.3   3404.5   7.4246 26346.2
 19 10 2016  05 31  -15.5095 26125.0   3404.5   7.4247 26345.9
 19 10 2016  05 32  -15.5093 26125.2   3404.1   7.4238 26346.0
 19 10 2016  05 33  -15.5095 26125.1   3403.7   7.4229 26345.9
 19 10 2016  05 34  -15.5088 26125.1   3404.9   7.4256 26346.0
 19 10 2016  05 35  -15.5088 26125.3   3404.0   7.4235 26346.1
 19 10 2016  05 36  -15.5092 26125.3   3403.0   7.4213 26346.0
 19 10 2016  05 37  -15.5091 26125.1   3404.3   7.4243 26346.0
 19 10 2016  05 38  -15.5090 26125.4   3403.7   7.4230 26346.2
 19 10 2016  05 39  -15.5086 26125.5   3404.0   7.4235 26346.3
 19 10 2016  05 40  -15.5098 26125.3   3403.4   7.4223 26346.1
 19 10 2016  05 41  -15.5098 26125.2   3403.7   7.4229 26346.0
 19 10 2016  05 42  -15.5092 26125.5   3403.9   7.4232 26346.3
 19 10 2016  05 43  -15.5091 26125.5   3404.4   7.4244 26346.4
 19 10 2016  05 44  -15.5089 26125.9   3403.5   7.4224 26346.6
 19 10 2016  05 45  -15.5090 26126.0   3403.9   7.4232 26346.8
 19 10 2016  05 46  -15.5087 26126.0   3404.6   7.4246 26346.9
 19 10 2016  05 47  -15.5094 26125.7   3403.9   7.4233 26346.5
 19 10 2016  05 48  -15.5082 26125.6   3404.4   7.4243 26346.5
 19 10 2016  05 49  -15.5080 26125.3   3403.8   7.4232 26346.1
 19 10 2016  05 50  -15.5066 26125.5   3403.7   7.4228 26346.3
 19 10 2016  05 51  -15.5060 26125.4   3404.7   7.4250 26346.3
 19 10 2016  05 52  -15.5064 26125.5   3403.2   7.4218 26346.2
 19 10 2016  05 53  -15.5063 26125.4   3404.3   7.4241 26346.2
 19 10 2016  05 54  -15.5073 26125.5   3403.4   7.4221 26346.3
 19 10 2016  05 55  -15.5073 26125.4   3403.1   7.4216 26346.2
 19 10 2016  05 56  -15.5067 26125.0   3404.3   7.4244 26345.9
 19 10 2016  05 57  -15.5073 26124.6   3403.9   7.4236 26345.4
 19 10 2016  05 58  -15.5073 26124.7   3401.7   7.4188 26345.3
 19 10 2016  05 59  -15.5070 26124.3   3403.0   7.4217 26345.0
 19 10 2016  06 00  -15.5065 26124.4   3403.6   7.4230 26345.2
 19 10 2016  06 01  -15.5072 26124.3   3403.5   7.4228 26345.0
 19 10 2016  06 02  -15.5076 26124.1   3402.9   7.4216 26344.8
 19 10 2016  06 03  -15.5069 26124.2   3403.2   7.4222 26344.9
 19 10 2016  06 04  -15.5074 26124.0   3403.1   7.4221 26344.7
 19 10 2016  06 05  -15.5074 26124.2   3402.4   7.4204 26344.8
 19 10 2016  06 06  -15.5080 26124.2   3402.5   7.4207 26344.8
 19 10 2016  06 07  -15.5062 26124.2   3405.3   7.4266 26345.2
 19 10 2016  06 08  -15.5078 26124.3   3403.0   7.4218 26345.0
 19 10 2016  06 09  -15.5070 26124.7   3404.8   7.4255 26345.6
 19 10 2016  06 10  -15.5086 26124.6   3403.6   7.4229 26345.4
 19 10 2016  06 11  -15.5072 26125.1   3404.4   7.4245 26346.0
 19 10 2016  06 12  -15.5086 26124.9   3404.1   7.4238 26345.7
 19 10 2016  06 13  -15.5086 26125.0   3404.2   7.4241 26345.9
 19 10 2016  06 14  -15.5075 26125.3   3404.5   7.4246 26346.2
 19 10 2016  06 15  -15.5095 26124.8   3403.5   7.4225 26345.6
 19 10 2016  06 16  -15.5094 26125.0   3403.1   7.4216 26345.7
 19 10 2016  06 17  -15.5093 26124.8   3404.2   7.4241 26345.7
 19 10 2016  06 18  -15.5084 26125.0   3405.4   7.4267 26346.0
 19 10 2016  06 19  -15.5089 26125.0   3404.8   7.4254 26346.0
 19 10 2016  06 20  -15.5110 26124.5   3404.3   7.4243 26345.4
 19 10 2016  06 21  -15.5107 26124.8   3403.4   7.4225 26345.6
 19 10 2016  06 22  -15.5108 26124.7   3403.4   7.4223 26345.4
 19 10 2016  06 23  -15.5091 26125.0   3404.9   7.4256 26345.9
 19 10 2016  06 24  -15.5096 26124.7   3404.9   7.4256 26345.6
 19 10 2016  06 25  -15.5117 26124.3   3403.1   7.4218 26345.0
 19 10 2016  06 26  -15.5112 26124.7   3401.9   7.4192 26345.2
 19 10 2016  06 27  -15.5099 26124.6   3404.5   7.4249 26345.5
 19 10 2016  06 28  -15.5115 26124.2   3403.7   7.4232 26345.0
 19 10 2016  06 29  -15.5119 26124.2   3403.1   7.4219 26345.0
 19 10 2016  06 30  -15.5096 26124.5   3405.1   7.4261 26345.5
 19 10 2016  06 31  -15.5109 26124.1   3403.9   7.4236 26345.0
 19 10 2016  06 32  -15.5108 26124.4   3402.1   7.4197 26345.0
 19 10 2016  06 33  -15.5103 26124.0   3404.6   7.4252 26344.9
 19 10 2016  06 34  -15.5100 26124.0   3405.1   7.4264 26344.9
 19 10 2016  06 35  -15.5102 26124.1   3403.0   7.4218 26344.8
 19 10 2016  06 36  -15.5094 26124.2   3403.6   7.4229 26345.0
 19 10 2016  06 37  -15.5102 26124.0   3402.6   7.4209 26344.7
 19 10 2016  06 38  -15.5110 26123.7   3402.6   7.4211 26344.4
 19 10 2016  06 39  -15.5101 26123.8   3403.0   7.4217 26344.5
 19 10 2016  06 40  -15.5090 26123.6   3405.5   7.4273 26344.6
 19 10 2016  06 41  -15.5097 26123.5   3404.1   7.4242 26344.4
 19 10 2016  06 42  -15.5093 26123.6   3404.5   7.4252 26344.5
 19 10 2016  06 43  -15.5094 26123.8   3403.4   7.4227 26344.5
 19 10 2016  06 44  -15.5081 26123.6   3405.5   7.4273 26344.7
 19 10 2016  06 45  -15.5092 26123.2   3404.0   7.4241 26344.1
 19 10 2016  06 46  -15.5102 26122.9   3402.9   7.4220 26343.6
 19 10 2016  06 47  -15.5102 26122.7   3403.8   7.4239 26343.5
 19 10 2016  06 48  -15.5097 26123.0   3403.4   7.4230 26343.7
 19 10 2016  06 49  -15.5093 26123.1   3402.8   7.4216 26343.8
 19 10 2016  06 50  -15.5091 26122.7   3404.3   7.4249 26343.6
 19 10 2016  06 51  -15.5089 26122.7   3402.6   7.4212 26343.3
 19 10 2016  06 52  -15.5084 26122.0   3405.5   7.4277 26343.1
 19 10 2016  06 53  -15.5084 26121.9   3405.4   7.4275 26343.0
 19 10 2016  06 54  -15.5094 26121.9   3404.1   7.4247 26342.8
 19 10 2016  06 55  -15.5075 26122.4   3405.2   7.4270 26343.4
 19 10 2016  06 56  -15.5093 26122.2   3402.3   7.4207 26342.8
 19 10 2016  06 57  -15.5091 26121.9   3404.6   7.4258 26342.8
 19 10 2016  06 58  -15.5078 26122.3   3404.7   7.4258 26343.3
 19 10 2016  06 59  -15.5085 26122.3   3403.4   7.4231 26343.1
 19 10 2016  07 00  -15.5092 26122.1   3403.9   7.4242 26342.9
 19 10 2016  07 01  -15.5091 26122.1   3403.6   7.4237 26342.9
 19 10 2016  07 02  -15.5095 26121.9   3404.5   7.4255 26342.8
 19 10 2016  07 03  -15.5100 26121.8   3404.3   7.4251 26342.7
 19 10 2016  07 04  -15.5098 26121.8   3404.9   7.4266 26342.8
 19 10 2016  07 05  -15.5108 26121.6   3404.2   7.4250 26342.4
 19 10 2016  07 06  -15.5097 26121.9   3403.7   7.4238 26342.7
 19 10 2016  07 07  -15.5100 26121.5   3403.4   7.4233 26342.3
 19 10 2016  07 08  -15.5102 26121.2   3403.6   7.4239 26342.0
 19 10 2016  07 09  -15.5102 26121.1   3403.3   7.4232 26341.9
 19 10 2016  07 10  -15.5092 26121.4   3402.7   7.4218 26342.1
 19 10 2016  07 11  -15.5096 26121.2   3403.1   7.4228 26342.0
 19 10 2016  07 12  -15.5099 26121.1   3403.8   7.4243 26341.9
 19 10 2016  07 13  -15.5102 26120.9   3404.4   7.4256 26341.9
 19 10 2016  07 14  -15.5103 26121.4   3404.1   7.4250 26342.2
 19 10 2016  07 15  -15.5101 26121.4   3404.1   7.4249 26342.3
 19 10 2016  07 16  -15.5098 26121.4   3405.9   7.4288 26342.5
 19 10 2016  07 17  -15.5096 26121.4   3405.9   7.4288 26342.5
 19 10 2016  07 18  -15.5107 26121.3   3404.9   7.4267 26342.3
 19 10 2016  07 19  -15.5104 26121.8   3404.3   7.4251 26342.7
 19 10 2016  07 20  -15.5102 26122.1   3404.6   7.4257 26343.0
 19 10 2016  07 21  -15.5106 26122.3   3404.8   7.4261 26343.2
 19 10 2016  07 22  -15.5104 26122.4   3403.9   7.4241 26343.3
 19 10 2016  07 23  -15.5107 26122.5   3404.6   7.4257 26343.4
 19 10 2016  07 24  -15.5107 26122.7   3403.4   7.4229 26343.5
 19 10 2016  07 25  -15.5099 26122.5   3404.4   7.4251 26343.4
 19 10 2016  07 26  -15.5097 26122.5   3403.5   7.4233 26343.3
 19 10 2016  07 27  -15.5104 26122.0   3404.3   7.4251 26342.9
 19 10 2016  07 28  -15.5093 26122.4   3404.7   7.4258 26343.3
 19 10 2016  07 29  -15.5096 26122.2   3404.8   7.4262 26343.1
 19 10 2016  07 30  -15.5096 26122.2   3405.2   7.4270 26343.2
 19 10 2016  07 31  -15.5097 26122.2   3405.6   7.4279 26343.2
 19 10 2016  07 32  -15.5095 26122.8   3404.1   7.4245 26343.6
 19 10 2016  07 33  -15.5093 26122.7   3404.9   7.4263 26343.7
 19 10 2016  07 34  -15.5102 26122.8   3403.8   7.4239 26343.6
 19 10 2016  07 35  -15.5094 26122.7   3405.9   7.4284 26343.8
 19 10 2016  07 36  -15.5088 26122.8   3405.5   7.4275 26343.9
 19 10 2016  07 37  -15.5103 26122.8   3403.3   7.4228 26343.6
 19 10 2016  07 38  -15.5111 26122.5   3403.6   7.4234 26343.3
 19 10 2016  07 39  -15.5096 26123.1   3404.7   7.4256 26344.0
 19 10 2016  07 40  -15.5088 26123.2   3405.7   7.4279 26344.3
 19 10 2016  07 41  -15.5090 26123.2   3406.5   7.4295 26344.4
 19 10 2016  07 42  -15.5102 26123.2   3405.3   7.4269 26344.2
 19 10 2016  07 43  -15.5102 26123.3   3406.5   7.4294 26344.5
 19 10 2016  07 44  -15.5108 26123.4   3405.0   7.4263 26344.4
 19 10 2016  07 45  -15.5096 26123.8   3405.4   7.4271 26344.8
 19 10 2016  07 46  -15.5089 26124.1   3405.1   7.4263 26345.1
 19 10 2016  07 47  -15.5095 26123.9   3404.7   7.4255 26344.8
 19 10 2016  07 48  -15.5102 26123.7   3405.1   7.4264 26344.7
 19 10 2016  07 49  -15.5099 26123.7   3404.3   7.4246 26344.6
 19 10 2016  07 50  -15.5095 26123.8   3405.2   7.4266 26344.8
 19 10 2016  07 51  -15.5105 26123.5   3404.7   7.4256 26344.5
 19 10 2016  07 52  -15.5101 26123.6   3404.7   7.4256 26344.5
 19 10 2016  07 53  -15.5096 26124.1   3405.4   7.4270 26345.1
 19 10 2016  07 54  -15.5107 26124.1   3404.3   7.4245 26345.0
 19 10 2016  07 55  -15.5104 26124.1   3405.5   7.4271 26345.1
 19 10 2016  07 56  -15.5091 26124.7   3405.6   7.4271 26345.8
 19 10 2016  07 57  -15.5099 26124.7   3405.3   7.4266 26345.7
 19 10 2016  07 58  -15.5101 26124.9   3404.9   7.4255 26345.8
 19 10 2016  07 59  -15.5097 26124.8   3405.1   7.4261 26345.8
 19 10 2016  08 00  -15.5099 26124.7   3405.2   7.4264 26345.7
 19 10 2016  08 01  -15.5099 26124.8   3404.9   7.4255 26345.7
 19 10 2016  08 02  -15.5100 26124.6   3405.3   7.4266 26345.6
 19 10 2016  08 03  -15.5102 26124.6   3405.0   7.4258 26345.5
 19 10 2016  08 04  -15.5102 26125.0   3405.2   7.4262 26346.0
 19 10 2016  08 05  -15.5101 26125.2   3405.2   7.4262 26346.2
 19 10 2016  08 06  -15.5102 26125.1   3405.1   7.4259 26346.0
 19 10 2016  08 07  -15.5099 26125.3   3405.4   7.4266 26346.3
 19 10 2016  08 08  -15.5100 26125.3   3405.2   7.4262 26346.3
 19 10 2016  08 09  -15.5098 26125.5   3405.2   7.4260 26346.5
 19 10 2016  08 10  -15.5095 26125.6   3405.4   7.4264 26346.6
 19 10 2016  08 11  -15.5086 26125.7   3405.5   7.4266 26346.7
 19 10 2016  08 12  -15.5095 26125.2   3405.1   7.4259 26346.1
 19 10 2016  08 13  -15.5096 26125.0   3405.1   7.4259 26346.0
 19 10 2016  08 14  -15.5089 26125.2   3404.9   7.4255 26346.2
 19 10 2016  08 15  -15.5096 26124.8   3405.8   7.4275 26345.8
 19 10 2016  08 16  -15.5081 26125.0   3405.4   7.4267 26346.0
 19 10 2016  08 17  -15.5083 26124.8   3404.5   7.4247 26345.7
 19 10 2016  08 18  -15.5088 26124.6   3403.4   7.4225 26345.4
 19 10 2016  08 19  -15.5089 26124.1   3405.3   7.4267 26345.2
 19 10 2016  08 20  -15.5085 26124.2   3405.3   7.4267 26345.2
 19 10 2016  08 21  -15.5084 26124.3   3403.9   7.4237 26345.2
 19 10 2016  08 22  -15.5085 26124.3   3404.4   7.4246 26345.1
 19 10 2016  08 23  -15.5075 26124.2   3405.9   7.4280 26345.3
 19 10 2016  08 24  -15.5085 26123.8   3405.5   7.4272 26344.8
 19 10 2016  08 25  -15.5078 26124.2   3404.5   7.4250 26345.1
 19 10 2016  08 26  -15.5090 26123.7   3404.8   7.4257 26344.7
 19 10 2016  08 27  -15.5088 26123.8   3403.8   7.4235 26344.6
 19 10 2016  08 28  -15.5080 26124.1   3404.4   7.4248 26345.0
 19 10 2016  08 29  -15.5080 26124.1   3404.9   7.4257 26345.0
 19 10 2016  08 30  -15.5082 26123.8   3405.6   7.4274 26344.8
 19 10 2016  08 31  -15.5085 26123.7   3405.5   7.4273 26344.8
 19 10 2016  08 32  -15.5095 26123.4   3404.0   7.4240 26344.2
 19 10 2016  08 33  -15.5094 26123.6   3404.0   7.4241 26344.4
 19 10 2016  08 34  -15.5079 26124.0   3404.7   7.4254 26344.9
 19 10 2016  08 35  -15.5090 26123.7   3403.6   7.4232 26344.5
 19 10 2016  08 36  -15.5080 26123.7   3403.9   7.4237 26344.5
 19 10 2016  08 37  -15.5074 26123.5   3404.3   7.4247 26344.4
 19 10 2016  08 38  -15.5082 26122.9   3405.2   7.4269 26343.9
 19 10 2016  08 39  -15.5073 26123.1   3404.3   7.4248 26344.0
 19 10 2016  08 40  -15.5072 26122.6   3405.4   7.4273 26343.7
 19 10 2016  08 41  -15.5073 26122.4   3405.7   7.4281 26343.5
 19 10 2016  08 42  -15.5074 26123.0   3404.3   7.4247 26343.8
 19 10 2016  08 43  -15.5067 26123.2   3405.9   7.4282 26344.3
 19 10 2016  08 44  -15.5071 26123.2   3405.5   7.4273 26344.2
 19 10 2016  08 45  -15.5081 26122.8   3405.1   7.4266 26343.8
 19 10 2016  08 46  -15.5074 26123.0   3404.3   7.4249 26343.9
 19 10 2016  08 47  -15.5089 26122.1   3405.5   7.4278 26343.2
 19 10 2016  08 48  -15.5082 26122.4   3405.2   7.4270 26343.4
 19 10 2016  08 49  -15.5099 26122.4   3405.3   7.4273 26343.4
 19 10 2016  08 50  -15.5098 26122.4   3404.9   7.4263 26343.3
 19 10 2016  08 51  -15.5083 26122.2   3405.5   7.4277 26343.2
 19 10 2016  08 52  -15.5088 26122.0   3405.6   7.4279 26343.0
 19 10 2016  08 53  -15.5099 26122.0   3404.0   7.4244 26342.9
 19 10 2016  08 54  -15.5100 26121.6   3405.7   7.4284 26342.7
 19 10 2016  08 55  -15.5104 26121.8   3403.9   7.4244 26342.6
 19 10 2016  08 56  -15.5098 26121.5   3405.0   7.4268 26342.5
 19 10 2016  08 57  -15.5102 26121.4   3404.2   7.4251 26342.3
 19 10 2016  08 58  -15.5101 26121.1   3405.6   7.4283 26342.1
 19 10 2016  08 59  -15.5096 26120.8   3405.1   7.4272 26341.8
 19 10 2016  09 00  -15.5098 26120.5   3405.8   7.4289 26341.6
 19 10 2016  09 01  -15.5096 26120.4   3405.8   7.4288 26341.5
 19 10 2016  09 02  -15.5099 26120.1   3405.7   7.4287 26341.2
 19 10 2016  09 03  -15.5095 26120.3   3405.8   7.4289 26341.4
 19 10 2016  09 04  -15.5099 26120.0   3406.0   7.4293 26341.2
 19 10 2016  09 05  -15.5095 26120.3   3405.8   7.4289 26341.4
 19 10 2016  09 06  -15.5097 26120.0   3405.8   7.4289 26341.1
 19 10 2016  09 07  -15.5101 26119.8   3406.0   7.4294 26340.9
 19 10 2016  09 08  -15.5099 26119.7   3406.3   7.4301 26340.9
 19 10 2016  09 09  -15.5098 26119.9   3406.7   7.4309 26341.1
 19 10 2016  09 10  -15.5097 26119.5   3406.5   7.4307 26340.7
 19 10 2016  09 11  -15.5097 26119.4   3406.4   7.4304 26340.6
 19 10 2016  09 12  -15.5092 26119.8   3406.9   7.4312 26341.1
 19 10 2016  09 13  -15.5085 26119.4   3408.5   7.4348 26340.8
 19 10 2016  09 14  -15.5102 26119.0   3406.4   7.4306 26340.2
 19 10 2016  09 15  -15.5092 26119.2   3406.8   7.4313 26340.4
 19 10 2016  09 16  -15.5097 26118.8   3407.7   7.4333 26340.1
 19 10 2016  09 17  -15.5092 26119.0   3406.0   7.4296 26340.1
 19 10 2016  09 18  -15.5085 26119.4   3406.8   7.4313 26340.6
 19 10 2016  09 19  -15.5088 26119.0   3407.2   7.4323 26340.3
 19 10 2016  09 20  -15.5085 26119.5   3406.8   7.4311 26340.7
 19 10 2016  09 21  -15.5074 26119.5   3409.5   7.4371 26341.1
 19 10 2016  09 22  -15.5072 26119.6   3409.0   7.4360 26341.1
 19 10 2016  09 23  -15.5069 26119.9   3408.5   7.4347 26341.4
 19 10 2016  09 24  -15.5068 26119.6   3409.0   7.4359 26341.1
 19 10 2016  09 25  -15.5063 26119.6   3409.3   7.4367 26341.1
 19 10 2016  09 26  -15.5067 26119.2   3408.8   7.4355 26340.7
 19 10 2016  09 27  -15.5061 26119.1   3409.3   7.4368 26340.7
 19 10 2016  09 28  -15.5057 26119.1   3409.3   7.4366 26340.7
 19 10 2016  09 29  -15.5054 26119.0   3409.1   7.4363 26340.5
 19 10 2016  09 30  -15.5047 26118.8   3410.1   7.4385 26340.4
 19 10 2016  09 31  -15.5056 26118.8   3409.4   7.4371 26340.4
 19 10 2016  09 32  -15.5039 26118.9   3410.1   7.4385 26340.6
 19 10 2016  09 33  -15.5040 26119.0   3409.3   7.4367 26340.6
 19 10 2016  09 34  -15.5041 26118.6   3410.6   7.4397 26340.3
 19 10 2016  09 35  -15.5038 26118.8   3408.7   7.4354 26340.3
 19 10 2016  09 36  -15.5037 26118.4   3409.9   7.4382 26340.1
 19 10 2016  09 37  -15.5030 26118.2   3409.9   7.4384 26339.8
 19 10 2016  09 38  -15.5027 26118.0   3409.4   7.4372 26339.6
 19 10 2016  09 39  -15.5021 26117.9   3408.6   7.4354 26339.4
 19 10 2016  09 40  -15.5027 26117.6   3408.6   7.4356 26339.1
 19 10 2016  09 41  -15.5009 26118.1   3409.7   7.4378 26339.7
 19 10 2016  09 42  -15.5016 26118.3   3408.0   7.4342 26339.7
 19 10 2016  09 43  -15.5014 26118.6   3407.5   7.4329 26339.9
 19 10 2016  09 44  -15.5015 26118.4   3409.1   7.4364 26340.0
 19 10 2016  09 45  -15.5009 26118.8   3408.1   7.4343 26340.2
 19 10 2016  09 46  -15.5005 26119.0   3407.8   7.4336 26340.4
 19 10 2016  09 47  -15.5005 26119.1   3408.0   7.4338 26340.5
 19 10 2016  09 48  -15.5017 26119.0   3407.9   7.4338 26340.4
 19 10 2016  09 49  -15.5014 26119.6   3407.1   7.4318 26340.9
 19 10 2016  09 50  -15.5013 26119.1   3408.4   7.4347 26340.6
 19 10 2016  09 51  -15.5013 26119.1   3406.5   7.4307 26340.3
 19 10 2016  09 52  -15.5010 26118.9   3406.7   7.4312 26340.1
 19 10 2016  09 53  -15.5007 26118.7   3407.1   7.4320 26340.0
 19 10 2016  09 54  -15.5005 26119.0   3407.3   7.4325 26340.4
 19 10 2016  09 55  -15.5011 26119.1   3407.1   7.4319 26340.4
 19 10 2016  09 56  -15.5015 26119.5   3406.9   7.4314 26340.7
 19 10 2016  09 57  -15.5015 26119.4   3408.4   7.4346 26340.9
 19 10 2016  09 58  -15.5019 26119.8   3406.5   7.4304 26341.0
 19 10 2016  09 59  -15.5023 26119.6   3407.0   7.4316 26340.8
 19 10 2016  10 00  -15.5035 26119.4   3405.9   7.4293 26340.5
 19 10 2016  10 01  -15.5036 26119.3   3406.8   7.4312 26340.5
 19 10 2016  10 02  -15.5040 26119.2   3406.6   7.4310 26340.4
 19 10 2016  10 03  -15.5040 26119.1   3406.6   7.4308 26340.3
 19 10 2016  10 04  -15.5041 26119.0   3406.5   7.4308 26340.2
 19 10 2016  10 05  -15.5047 26118.8   3407.0   7.4318 26340.1
 19 10 2016  10 06  -15.5046 26118.7   3407.4   7.4327 26340.0
 19 10 2016  10 07  -15.5050 26118.6   3406.1   7.4300 26339.8
 19 10 2016  10 08  -15.5048 26118.5   3406.8   7.4315 26339.8
 19 10 2016  10 09  -15.5045 26118.6   3408.5   7.4350 26340.1
 19 10 2016  10 10  -15.5050 26119.1   3407.9   7.4336 26340.5
 19 10 2016  10 11  -15.5052 26119.6   3407.3   7.4322 26340.9
 19 10 2016  10 12  -15.5060 26119.8   3407.0   7.4316 26341.1
 19 10 2016  10 13  -15.5064 26119.7   3406.5   7.4305 26340.9
 19 10 2016  10 14  -15.5064 26119.3   3406.7   7.4310 26340.5
 19 10 2016  10 15  -15.5066 26119.1   3406.8   7.4313 26340.3
 19 10 2016  10 16  -15.5069 26119.1   3406.7   7.4311 26340.4
 19 10 2016  10 17  -15.5068 26119.1   3406.7   7.4311 26340.3
 19 10 2016  10 18  -15.5057 26119.2   3407.9   7.4337 26340.6
 19 10 2016  10 19  -15.5071 26119.5   3406.6   7.4308 26340.7
 19 10 2016  10 20  -15.5070 26119.5   3407.5   7.4328 26340.8
 19 10 2016  10 21  -15.5079 26118.9   3406.7   7.4311 26340.1
 19 10 2016  10 22  -15.5075 26118.7   3408.1   7.4341 26340.2
 19 10 2016  10 23  -15.5080 26119.2   3407.8   7.4335 26340.6
 19 10 2016  10 24  -15.5088 26119.3   3407.5   7.4328 26340.6
 19 10 2016  10 25  -15.5085 26119.6   3407.0   7.4317 26340.9
 19 10 2016  10 26  -15.5081 26119.5   3407.0   7.4316 26340.8
 19 10 2016  10 27  -15.5085 26119.8   3406.3   7.4300 26340.9
 19 10 2016  10 28  -15.5075 26119.7   3408.7   7.4351 26341.2
 19 10 2016  10 29  -15.5077 26119.9   3407.3   7.4321 26341.2
 19 10 2016  10 30  -15.5079 26120.0   3407.5   7.4327 26341.3
 19 10 2016  10 31  -15.5077 26120.0   3409.0   7.4358 26341.5
 19 10 2016  10 32  -15.5083 26120.1   3407.7   7.4330 26341.4
 19 10 2016  10 33  -15.5087 26120.3   3407.6   7.4327 26341.6
 19 10 2016  10 34  -15.5090 26119.7   3407.0   7.4316 26341.0
 19 10 2016  10 35  -15.5085 26119.3   3407.6   7.4330 26340.7
 19 10 2016  10 36  -15.5084 26119.6   3407.0   7.4316 26340.8
 19 10 2016  10 37  -15.5085 26119.5   3408.8   7.4355 26341.0
 19 10 2016  10 38  -15.5098 26119.3   3407.1   7.4320 26340.6
 19 10 2016  10 39  -15.5088 26119.2   3408.3   7.4345 26340.7
 19 10 2016  10 40  -15.5095 26119.3   3407.0   7.4317 26340.5
 19 10 2016  10 41  -15.5076 26119.7   3407.8   7.4332 26341.1
 19 10 2016  10 42  -15.5073 26119.9   3408.2   7.4340 26341.3
 19 10 2016  10 43  -15.5068 26119.9   3408.0   7.4336 26341.3
 19 10 2016  10 44  -15.5063 26119.9   3407.5   7.4325 26341.2
 19 10 2016  10 45  -15.5061 26120.4   3407.7   7.4329 26341.7
 19 10 2016  10 46  -15.5062 26120.4   3407.3   7.4320 26341.7
 19 10 2016  10 47  -15.5057 26120.7   3407.9   7.4332 26342.1
 19 10 2016  10 48  -15.5054 26120.9   3407.8   7.4331 26342.2
 19 10 2016  10 49  -15.5052 26121.0   3407.3   7.4318 26342.2
 19 10 2016  10 50  -15.5046 26121.4   3407.5   7.4321 26342.7
 19 10 2016  10 51  -15.5041 26121.8   3407.7   7.4325 26343.1
 19 10 2016  10 52  -15.5043 26122.0   3406.8   7.4306 26343.2
 19 10 2016  10 53  -15.5047 26121.9   3406.7   7.4304 26343.1
 19 10 2016  10 54  -15.5047 26122.2   3406.3   7.4295 26343.3
 19 10 2016  10 55  -15.5050 26121.9   3406.2   7.4293 26343.1
 19 10 2016  10 56  -15.5048 26122.1   3405.6   7.4279 26343.1
 19 10 2016  10 57  -15.5040 26122.3   3406.1   7.4290 26343.4
 19 10 2016  10 58  -15.5037 26122.2   3406.0   7.4286 26343.3
 19 10 2016  10 59  -15.5038 26122.5   3405.1   7.4267 26343.5
 19 10 2016  11 00  -15.5035 26122.7   3406.1   7.4289 26343.8
 19 10 2016  11 01  -15.5027 26123.3   3405.3   7.4269 26344.3
 19 10 2016  11 02  -15.5019 26123.9   3404.9   7.4259 26344.8
 19 10 2016  11 03  -15.5024 26123.5   3404.6   7.4253 26344.4
 19 10 2016  11 04  -15.5023 26123.9   3404.9   7.4259 26344.8
 19 10 2016  11 05  -15.5014 26124.4   3405.1   7.4262 26345.3
 19 10 2016  11 06  -15.5010 26124.8   3405.5   7.4270 26345.8
 19 10 2016  11 07  -15.5007 26125.4   3405.3   7.4264 26346.4
 19 10 2016  11 08  -15.5001 26125.5   3405.6   7.4270 26346.5
 19 10 2016  11 09  -15.4997 26126.0   3405.4   7.4264 26347.0
 19 10 2016  11 10  -15.5004 26126.2   3404.4   7.4242 26347.1
 19 10 2016  11 11  -15.4992 26127.0   3405.3   7.4258 26348.0
 19 10 2016  11 12  -15.4984 26127.9   3404.6   7.4242 26348.8
 19 10 2016  11 13  -15.4990 26128.3   3403.9   7.4226 26349.1
 19 10 2016  11 14  -15.4987 26128.5   3403.8   7.4221 26349.3
 19 10 2016  11 15  -15.4981 26129.4   3403.8   7.4221 26350.2
 19 10 2016  11 16  -15.4988 26129.8   3402.7   7.4195 26350.4
 19 10 2016  11 17  -15.4979 26130.1   3403.1   7.4203 26350.8
 19 10 2016  11 18  -15.4976 26130.7   3403.7   7.4215 26351.5
 19 10 2016  11 19  -15.4984 26130.8   3402.4   7.4186 26351.4
 19 10 2016  11 20  -15.4983 26131.1   3403.1   7.4200 26351.8
 19 10 2016  11 21  -15.4982 26131.3   3402.8   7.4192 26352.0
 19 10 2016  11 22  -15.4971 26131.9   3402.9   7.4192 26352.6
 19 10 2016  11 23  -15.4972 26131.8   3402.1   7.4176 26352.3
 19 10 2016  11 24  -15.4971 26132.0   3401.9   7.4172 26352.5
 19 10 2016  11 25  -15.4967 26132.1   3401.9   7.4171 26352.6
 19 10 2016  11 26  -15.4973 26132.2   3401.8   7.4169 26352.7
 19 10 2016  11 27  -15.4979 26132.3   3401.4   7.4160 26352.7
 19 10 2016  11 28  -15.4979 26131.8   3401.7   7.4167 26352.3
 19 10 2016  11 29  -15.4973 26132.0   3401.9   7.4172 26352.5
 19 10 2016  11 30  -15.4971 26132.4   3401.8   7.4168 26352.9
 19 10 2016  11 31  -15.4968 26133.1   3401.5   7.4160 26353.5
 19 10 2016  11 32  -15.4973 26133.4   3402.1   7.4171 26353.9
 19 10 2016  11 33  -15.4967 26134.2   3401.5   7.4156 26354.6
 19 10 2016  11 34  -15.4971 26134.1   3401.2   7.4150 26354.5
 19 10 2016  11 35  -15.4971 26134.8   3401.1   7.4145 26355.1
 19 10 2016  11 36  -15.4962 26135.6   3401.3   7.4147 26356.0
 19 10 2016  11 37  -15.4955 26136.7   3401.3   7.4146 26357.1
 19 10 2016  11 38  -15.4954 26136.4   3401.7   7.4154 26356.8
 19 10 2016  11 39  -15.4950 26137.0   3399.9   7.4114 26357.3
 19 10 2016  11 40  -15.4952 26137.1   3400.2   7.4121 26357.4
 19 10 2016  11 41  -15.4946 26137.4   3400.4   7.4124 26357.7
 19 10 2016  11 42  -15.4942 26137.6   3400.6   7.4127 26357.9
 19 10 2016  11 43  -15.4945 26138.2   3400.4   7.4121 26358.4
 19 10 2016  11 44  -15.4950 26138.8   3398.5   7.4079 26358.8
 19 10 2016  11 45  -15.4949 26139.3   3398.5   7.4077 26359.3
 19 10 2016  11 46  -15.4939 26139.9   3399.9   7.4106 26360.1
 19 10 2016  11 47  -15.4927 26140.4   3399.6   7.4097 26360.5
 19 10 2016  11 48  -15.4931 26141.0   3399.1   7.4086 26361.1
 19 10 2016  11 49  -15.4936 26141.8   3397.9   7.4057 26361.7
 19 10 2016  11 50  -15.4937 26142.5   3397.8   7.4053 26362.4
 19 10 2016  11 51  -15.4939 26142.4   3396.4   7.4023 26362.1
 19 10 2016  11 52  -15.4938 26142.4   3396.7   7.4031 26362.1
 19 10 2016  11 53  -15.4934 26142.9   3396.4   7.4023 26362.6
 19 10 2016  11 54  -15.4932 26143.1   3396.0   7.4014 26362.7
 19 10 2016  11 55  -15.4928 26142.8   3394.7   7.3987 26362.2
 19 10 2016  11 56  -15.4921 26142.9   3395.3   7.3998 26362.5
 19 10 2016  11 57  -15.4920 26143.4   3394.6   7.3983 26362.9
 19 10 2016  11 58  -15.4922 26144.1   3395.1   7.3991 26363.6
 19 10 2016  11 59  -15.4925 26144.7   3394.5   7.3975 26364.2
 19 10 2016  12 00  -15.4926 26144.8   3394.0   7.3965 26364.2
 19 10 2016  12 01  -15.4922 26145.7   3393.2   7.3945 26364.9
 19 10 2016  12 02  -15.4913 26145.7   3393.3   7.3948 26365.0
 19 10 2016  12 03  -15.4911 26146.6   3393.6   7.3952 26365.9
 19 10 2016  12 04  -15.4910 26147.0   3393.6   7.3949 26366.3
 19 10 2016  12 05  -15.4917 26147.3   3393.1   7.3939 26366.5
 19 10 2016  12 06  -15.4920 26147.9   3392.8   7.3931 26367.1
 19 10 2016  12 07  -15.4915 26148.5   3392.9   7.3932 26367.7
 19 10 2016  12 08  -15.4920 26148.9   3392.4   7.3920 26368.0
 19 10 2016  12 09  -15.4918 26149.4   3392.7   7.3924 26368.6
 19 10 2016  12 10  -15.4916 26150.0   3392.3   7.3915 26369.1
 19 10 2016  12 11  -15.4911 26150.3   3392.3   7.3913 26369.4
 19 10 2016  12 12  -15.4908 26151.3   3392.1   7.3906 26370.4
 19 10 2016  12 13  -15.4906 26152.0   3392.0   7.3901 26371.0
 19 10 2016  12 14  -15.4905 26152.8   3391.9   7.3898 26371.8
 19 10 2016  12 15  -15.4909 26153.0   3391.5   7.3889 26372.0
 19 10 2016  12 16  -15.4914 26153.7   3391.1   7.3878 26372.6
 19 10 2016  12 17  -15.4916 26154.1   3391.3   7.3881 26373.0
 19 10 2016  12 18  -15.4914 26154.8   3389.9   7.3850 26373.6
 19 10 2016  12 19  -15.4912 26155.5   3391.5   7.3882 26374.5
 19 10 2016  12 20  -15.4910 26156.4   3391.7   7.3883 26375.3
 19 10 2016  12 21  -15.4920 26157.4   3390.4   7.3854 26376.2
 19 10 2016  12 22  -15.4904 26158.9   3390.9   7.3860 26377.8
 19 10 2016  12 23  -15.4900 26159.9   3390.8   7.3853 26378.8
 19 10 2016  12 24  -15.4905 26159.6   3389.4   7.3824 26378.3
 19 10 2016  12 25  -15.4895 26159.8   3388.0   7.3793 26378.3
 19 10 2016  12 26  -15.4889 26159.7   3387.8   7.3790 26378.2
 19 10 2016  12 27  -15.4884 26159.9   3387.8   7.3790 26378.3
 19 10 2016  12 28  -15.4882 26161.1   3386.7   7.3763 26379.4
 19 10 2016  12 29  -15.4886 26162.2   3386.6   7.3756 26380.4
 19 10 2016  12 30  -15.4878 26163.2   3386.6   7.3754 26381.5
 19 10 2016  12 31  -15.4875 26163.8   3386.0   7.3740 26382.0
 19 10 2016  12 32  -15.4879 26163.4   3386.1   7.3742 26381.6
 19 10 2016  12 33  -15.4886 26163.7   3385.5   7.3729 26381.9
 19 10 2016  12 34  -15.4882 26164.8   3384.6   7.3706 26382.8
 19 10 2016  12 35  -15.4872 26165.4   3385.8   7.3731 26383.5
 19 10 2016  12 36  -15.4876 26165.8   3384.8   7.3709 26383.8
 19 10 2016  12 37  -15.4874 26166.2   3383.8   7.3686 26384.1
 19 10 2016  12 38  -15.4878 26166.1   3385.0   7.3711 26384.2
 19 10 2016  12 39  -15.4885 26166.6   3384.2   7.3693 26384.5
 19 10 2016  12 40  -15.4888 26167.1   3383.2   7.3670 26384.9
 19 10 2016  12 41  -15.4895 26167.5   3382.6   7.3657 26385.2
 19 10 2016  12 42  -15.4895 26168.0   3382.8   7.3659 26385.7
 19 10 2016  12 43  -15.4894 26168.1   3382.9   7.3660 26385.8
 19 10 2016  12 44  -15.4899 26168.1   3381.9   7.3639 26385.8
 19 10 2016  12 45  -15.4896 26168.3   3381.8   7.3636 26385.9
 19 10 2016  12 46  -15.4894 26168.6   3381.4   7.3627 26386.2
 19 10 2016  12 47  -15.4892 26169.0   3381.0   7.3617 26386.5
 19 10 2016  12 48  -15.4887 26169.4   3380.8   7.3613 26386.9
 19 10 2016  12 49  -15.4891 26169.5   3382.0   7.3638 26387.1
 19 10 2016  12 50  -15.4892 26170.3   3380.5   7.3602 26387.7
 19 10 2016  12 51  -15.4886 26170.5   3381.2   7.3618 26388.0
 19 10 2016  12 52  -15.4897 26170.2   3380.3   7.3600 26387.6
 19 10 2016  12 53  -15.4900 26170.4   3379.5   7.3580 26387.7
 19 10 2016  12 54  -15.4897 26170.9   3379.5   7.3579 26388.2
 19 10 2016  12 55  -15.4899 26171.4   3378.6   7.3559 26388.6
 19 10 2016  12 56  -15.4901 26171.5   3378.6   7.3560 26388.7
 19 10 2016  12 57  -15.4905 26171.8   3378.2   7.3549 26388.9
 19 10 2016  12 58  -15.4903 26172.4   3377.1   7.3523 26389.4
 19 10 2016  12 59  -15.4907 26172.7   3376.2   7.3504 26389.6
 19 10 2016  13 00  -15.4906 26173.2   3375.8   7.3494 26390.0
 19 10 2016  13 01  -15.4904 26173.6   3376.0   7.3497 26390.5
 19 10 2016  13 02  -15.4902 26174.0   3377.4   7.3526 26391.0
 19 10 2016  13 03  -15.4904 26174.7   3375.1   7.3474 26391.4
 19 10 2016  13 04  -15.4906 26175.0   3375.6   7.3485 26391.7
 19 10 2016  13 05  -15.4907 26175.5   3374.7   7.3465 26392.1
 19 10 2016  13 06  -15.4907 26175.9   3374.2   7.3452 26392.4
 19 10 2016  13 07  -15.4905 26176.2   3374.5   7.3458 26392.8
 19 10 2016  13 08  -15.4903 26176.6   3373.7   7.3440 26393.1
 19 10 2016  13 09  -15.4909 26176.7   3372.8   7.3421 26393.1
 19 10 2016  13 10  -15.4903 26177.1   3373.0   7.3423 26393.6
 19 10 2016  13 11  -15.4903 26177.6   3372.3   7.3407 26393.9
 19 10 2016  13 12  -15.4903 26178.1   3372.4   7.3408 26394.5
 19 10 2016  13 13  -15.4902 26178.7   3372.0   7.3398 26395.0
 19 10 2016  13 14  -15.4898 26179.2   3371.3   7.3380 26395.4
 19 10 2016  13 15  -15.4908 26179.4   3371.2   7.3377 26395.5
 19 10 2016  13 16  -15.4901 26180.0   3370.8   7.3368 26396.1
 19 10 2016  13 17  -15.4904 26180.3   3371.4   7.3380 26396.5
 19 10 2016  13 18  -15.4913 26180.8   3369.9   7.3346 26396.8
 19 10 2016  13 19  -15.4908 26181.6   3369.2   7.3329 26397.5
 19 10 2016  13 20  -15.4909 26182.3   3369.1   7.3325 26398.2
 19 10 2016  13 21  -15.4913 26183.3   3367.9   7.3297 26399.0
 19 10 2016  13 22  -15.4903 26183.8   3369.3   7.3324 26399.7
 19 10 2016  13 23  -15.4905 26184.5   3368.4   7.3303 26400.3
 19 10 2016  13 24  -15.4910 26184.8   3368.1   7.3297 26400.5
 19 10 2016  13 25  -15.4907 26185.4   3367.5   7.3282 26401.0
 19 10 2016  13 26  -15.4912 26185.6   3366.4   7.3257 26401.1
 19 10 2016  13 27  -15.4912 26186.0   3366.1   7.3250 26401.4
 19 10 2016  13 28  -15.4916 26186.5   3364.7   7.3219 26401.8
 19 10 2016  13 29  -15.4908 26187.4   3364.3   7.3207 26402.6
 19 10 2016  13 30  -15.4914 26187.7   3364.4   7.3209 26403.0
 19 10 2016  13 31  -15.4916 26188.1   3363.8   7.3194 26403.2
 19 10 2016  13 32  -15.4921 26188.2   3362.7   7.3170 26403.2
 19 10 2016  13 33  -15.4916 26188.0   3363.2   7.3181 26403.1
 19 10 2016  13 34  -15.4929 26187.9   3361.7   7.3150 26402.8
 19 10 2016  13 35  -15.4933 26188.1   3361.7   7.3149 26403.0
 19 10 2016  13 36  -15.4942 26188.4   3361.2   7.3137 26403.2
 19 10 2016  13 37  -15.4938 26189.1   3361.4   7.3140 26403.9
 19 10 2016  13 38  -15.4935 26190.0   3361.0   7.3128 26404.7
 19 10 2016  13 39  -15.4943 26190.3   3360.9   7.3126 26405.1
 19 10 2016  13 40  -15.4939 26191.0   3359.8   7.3100 26405.6
 19 10 2016  13 41  -15.4954 26191.2   3358.0   7.3061 26405.6
 19 10 2016  13 42  -15.4960 26191.4   3358.5   7.3070 26405.9
 19 10 2016  13 43  -15.4953 26192.0   3358.7   7.3074 26406.5
 19 10 2016  13 44  -15.4953 26192.3   3357.9   7.3056 26406.7
 19 10 2016  13 45  -15.4961 26192.8   3356.0   7.3014 26406.9
 19 10 2016  13 46  -15.4949 26193.4   3357.6   7.3047 26407.8
 19 10 2016  13 47  -15.4958 26193.9   3356.8   7.3027 26408.2
 19 10 2016  13 48  -15.4958 26194.7   3356.8   7.3027 26408.9
 19 10 2016  13 49  -15.4961 26195.2   3356.1   7.3009 26409.3
 19 10 2016  13 50  -15.4958 26195.7   3355.8   7.3001 26409.8
 19 10 2016  13 51  -15.4969 26195.8   3355.0   7.2984 26409.8
 19 10 2016  13 52  -15.4968 26196.3   3353.8   7.2957 26410.2
 19 10 2016  13 53  -15.4976 26196.4   3353.7   7.2954 26410.2
 19 10 2016  13 54  -15.4970 26196.9   3354.5   7.2969 26410.8
 19 10 2016  13 55  -15.4970 26197.7   3353.7   7.2951 26411.5
 19 10 2016  13 56  -15.4978 26198.0   3353.1   7.2937 26411.7
 19 10 2016  13 57  -15.4982 26198.3   3352.7   7.2927 26412.0
 19 10 2016  13 58  -15.4991 26198.5   3352.1   7.2913 26412.1
 19 10 2016  13 59  -15.4990 26198.9   3351.7   7.2905 26412.5
 19 10 2016  14 00  -15.4992 26199.0   3351.7   7.2903 26412.6
 19 10 2016  14 01  -15.4996 26199.2   3351.8   7.2904 26412.7
 19 10 2016  14 02  -15.5002 26199.3   3350.6   7.2880 26412.7
 19 10 2016  14 03  -15.5010 26199.2   3350.6   7.2881 26412.6
 19 10 2016  14 04  -15.5017 26199.1   3349.8   7.2863 26412.4
 19 10 2016  14 05  -15.5021 26199.2   3350.1   7.2870 26412.5
 19 10 2016  14 06  -15.5024 26199.3   3349.5   7.2856 26412.6
 19 10 2016  14 07  -15.5030 26199.3   3349.5   7.2855 26412.5
 19 10 2016  14 08  -15.5036 26199.3   3349.0   7.2844 26412.4
 19 10 2016  14 09  -15.5040 26199.4   3348.9   7.2843 26412.5
 19 10 2016  14 10  -15.5042 26199.6   3348.8   7.2840 26412.8
 19 10 2016  14 11  -15.5044 26199.9   3348.7   7.2837 26413.0
 19 10 2016  14 12  -15.5046 26200.3   3348.7   7.2836 26413.4
 19 10 2016  14 13  -15.5049 26200.6   3348.5   7.2830 26413.7
 19 10 2016  14 14  -15.5051 26200.4   3348.1   7.2822 26413.5
 19 10 2016  14 15  -15.5056 26200.2   3347.8   7.2816 26413.3
 19 10 2016  14 16  -15.5060 26200.0   3347.3   7.2807 26413.0
 19 10 2016  14 17  -15.5066 26199.5   3346.9   7.2799 26412.4
 19 10 2016  14 18  -15.5071 26199.1   3346.3   7.2787 26412.0
 19 10 2016  14 19  -15.5071 26199.0   3346.8   7.2798 26411.9
 19 10 2016  14 20  -15.5076 26198.7   3346.0   7.2781 26411.5
 19 10 2016  14 21  -15.5076 26198.5   3346.0   7.2782 26411.4
 19 10 2016  14 22  -15.5075 26198.6   3346.3   7.2789 26411.4
 19 10 2016  14 23  -15.5073 26198.7   3346.3   7.2787 26411.5
 19 10 2016  14 24  -15.5078 26198.8   3345.7   7.2776 26411.5
 19 10 2016  14 25  -15.5078 26199.2   3345.6   7.2771 26412.0
 19 10 2016  14 26  -15.5076 26199.8   3345.2   7.2762 26412.5
 19 10 2016  14 27  -15.5077 26200.6   3345.0   7.2756 26413.3
 19 10 2016  14 28  -15.5077 26201.0   3344.7   7.2748 26413.6
 19 10 2016  14 29  -15.5078 26201.0   3344.4   7.2741 26413.6
 19 10 2016  14 30  -15.5082 26201.4   3343.0   7.2710 26413.8
 19 10 2016  14 31  -15.5078 26201.4   3343.3   7.2717 26413.8
 19 10 2016  14 32  -15.5079 26201.8   3343.0   7.2710 26414.2
 19 10 2016  14 33  -15.5079 26201.9   3342.6   7.2701 26414.2
 19 10 2016  14 34  -15.5074 26202.3   3342.0   7.2686 26414.6
 19 10 2016  14 35  -15.5078 26202.7   3341.8   7.2680 26414.9
 19 10 2016  14 36  -15.5077 26203.1   3341.5   7.2674 26415.3
 19 10 2016  14 37  -15.5080 26202.8   3340.6   7.2654 26414.9
 19 10 2016  14 38  -15.5078 26202.6   3340.3   7.2648 26414.7
 19 10 2016  14 39  -15.5079 26202.3   3339.8   7.2639 26414.2
 19 10 2016  14 40  -15.5079 26202.0   3339.4   7.2630 26414.0
 19 10 2016  14 41  -15.5076 26201.8   3339.5   7.2634 26413.7
 19 10 2016  14 42  -15.5080 26201.8   3339.4   7.2631 26413.7
 19 10 2016  14 43  -15.5081 26201.8   3339.3   7.2630 26413.7
 19 10 2016  14 44  -15.5086 26202.0   3338.9   7.2621 26413.9
 19 10 2016  14 45  -15.5085 26202.1   3339.4   7.2631 26414.0
 19 10 2016  14 46  -15.5091 26202.1   3338.9   7.2621 26413.9
 19 10 2016  14 47  -15.5085 26202.2   3338.7   7.2615 26414.0
 19 10 2016  14 48  -15.5088 26201.7   3338.7   7.2616 26413.5
 19 10 2016  14 49  -15.5082 26201.8   3338.1   7.2603 26413.6
 19 10 2016  14 50  -15.5080 26202.0   3338.6   7.2614 26413.8
 19 10 2016  14 51  -15.5079 26201.8   3338.3   7.2608 26413.6
 19 10 2016  14 52  -15.5078 26201.5   3337.7   7.2597 26413.3
 19 10 2016  14 53  -15.5071 26201.2   3338.4   7.2612 26413.0
 19 10 2016  14 54  -15.5075 26200.8   3338.9   7.2624 26412.7
 19 10 2016  14 55  -15.5075 26201.1   3337.8   7.2600 26412.9
 19 10 2016  14 56  -15.5081 26201.0   3337.8   7.2600 26412.7
 19 10 2016  14 57  -15.5064 26201.2   3338.3   7.2609 26413.0
 19 10 2016  14 58  -15.5066 26201.2   3338.7   7.2619 26413.1
 19 10 2016  14 59  -15.5063 26201.3   3338.5   7.2613 26413.1
 19 10 2016  15 00  -15.5061 26201.5   3337.3   7.2587 26413.2
 19 10 2016  15 01  -15.5070 26200.9   3336.2   7.2564 26412.4
 19 10 2016  15 02  -15.5066 26200.4   3335.7   7.2555 26411.9
 19 10 2016  15 03  -15.5066 26200.3   3335.5   7.2552 26411.8
 19 10 2016  15 04  -15.5066 26200.4   3335.9   7.2559 26411.9
 19 10 2016  15 05  -15.5066 26201.0   3335.9   7.2559 26412.5
 19 10 2016  15 06  -15.5073 26201.0   3335.5   7.2549 26412.4
 19 10 2016  15 07  -15.5074 26200.9   3336.0   7.2561 26412.5
 19 10 2016  15 08  -15.5076 26200.9   3334.2   7.2523 26412.2
 19 10 2016  15 09  -15.5081 26200.3   3334.2   7.2523 26411.6
 19 10 2016  15 10  -15.5078 26200.1   3333.8   7.2516 26411.4
 19 10 2016  15 11  -15.5078 26199.4   3333.5   7.2510 26410.6
 19 10 2016  15 12  -15.5077 26198.8   3332.9   7.2501 26410.0
 19 10 2016  15 13  -15.5078 26198.1   3333.0   7.2505 26409.3
 19 10 2016  15 14  -15.5079 26197.1   3332.7   7.2499 26408.2
 19 10 2016  15 15  -15.5075 26196.3   3332.8   7.2503 26407.5
 19 10 2016  15 16  -15.5076 26195.7   3333.0   7.2510 26406.9
 19 10 2016  15 17  -15.5076 26195.4   3332.8   7.2507 26406.5
 19 10 2016  15 18  -15.5067 26195.0   3333.3   7.2518 26406.2
 19 10 2016  15 19  -15.5067 26195.1   3333.6   7.2525 26406.4
 19 10 2016  15 20  -15.5062 26195.6   3333.7   7.2525 26406.8
 19 10 2016  15 21  -15.5067 26195.6   3333.6   7.2523 26406.9
 19 10 2016  15 22  -15.5063 26195.5   3334.0   7.2532 26406.8
 19 10 2016  15 23  -15.5069 26195.4   3333.4   7.2521 26406.6
 19 10 2016  15 24  -15.5072 26195.5   3333.4   7.2520 26406.8
 19 10 2016  15 25  -15.5073 26195.9   3333.2   7.2514 26407.1
 19 10 2016  15 26  -15.5071 26196.5   3332.9   7.2506 26407.7
 19 10 2016  15 27  -15.5069 26196.9   3333.0   7.2507 26408.0
 19 10 2016  15 28  -15.5065 26196.5   3332.1   7.2489 26407.5
 19 10 2016  15 29  -15.5060 26195.8   3331.5   7.2478 26406.8
 19 10 2016  15 30  -15.5051 26195.3   3331.7   7.2483 26406.3
 19 10 2016  15 31  -15.5048 26194.9   3330.9   7.2467 26405.8
 19 10 2016  15 32  -15.5046 26193.9   3331.2   7.2477 26404.9
 19 10 2016  15 33  -15.5050 26193.0   3330.0   7.2452 26403.8
 19 10 2016  15 34  -15.5059 26191.9   3330.8   7.2473 26402.8
 19 10 2016  15 35  -15.5061 26192.5   3331.5   7.2488 26403.5
 19 10 2016  15 36  -15.5065 26193.4   3332.3   7.2503 26404.5
 19 10 2016  15 37  -15.5065 26194.1   3332.6   7.2507 26405.2
 19 10 2016  15 38  -15.5068 26194.3   3332.5   7.2505 26405.4
 19 10 2016  15 39  -15.5072 26193.5   3332.5   7.2505 26404.6
 19 10 2016  15 40  -15.5083 26192.6   3331.0   7.2475 26403.6
 19 10 2016  15 41  -15.5084 26192.6   3331.0   7.2476 26403.6
 19 10 2016  15 42  -15.5087 26192.4   3331.4   7.2485 26403.4
 19 10 2016  15 43  -15.5069 26192.4   3332.4   7.2507 26403.5
 19 10 2016  15 44  -15.5076 26192.0   3332.9   7.2519 26403.2
 19 10 2016  15 45  -15.5084 26191.8   3331.8   7.2494 26402.9
 19 10 2016  15 46  -15.5078 26191.7   3334.4   7.2551 26403.1
 19 10 2016  15 47  -15.5081 26191.5   3333.4   7.2531 26402.8
 19 10 2016  15 48  -15.5083 26191.5   3332.1   7.2502 26402.6
 19 10 2016  15 49  -15.5092 26191.1   3332.6   7.2514 26402.3
 19 10 2016  15 50  -15.5092 26191.0   3332.5   7.2513 26402.2
 19 10 2016  15 51  -15.5087 26190.9   3332.9   7.2523 26402.1
 19 10 2016  15 52  -15.5087 26190.8   3333.2   7.2528 26402.0
 19 10 2016  15 53  -15.5092 26190.2   3333.6   7.2539 26401.5
 19 10 2016  15 54  -15.5090 26190.2   3332.4   7.2512 26401.4
 19 10 2016  15 55  -15.5104 26189.7   3332.3   7.2512 26400.9
 19 10 2016  15 56  -15.5093 26189.4   3333.2   7.2532 26400.7
 19 10 2016  15 57  -15.5101 26188.3   3334.0   7.2552 26399.7
 19 10 2016  15 58  -15.5112 26187.7   3332.1   7.2512 26398.9
 19 10 2016  15 59  -15.5104 26187.4   3333.3   7.2539 26398.7
 19 10 2016  16 00  -15.5108 26187.0   3333.5   7.2544 26398.3
 19 10 2016  16 01  -15.5113 26186.6   3334.5   7.2568 26398.1
 19 10 2016  16 02  -15.5111 26186.4   3334.4   7.2566 26397.8
 19 10 2016  16 03  -15.5127 26185.7   3333.8   7.2554 26397.0
 19 10 2016  16 04  -15.5133 26184.9   3333.1   7.2542 26396.2
 19 10 2016  16 05  -15.5124 26184.7   3333.3   7.2548 26396.0
 19 10 2016  16 06  -15.5126 26183.5   3335.3   7.2594 26395.1
 19 10 2016  16 07  -15.5137 26182.9   3334.1   7.2569 26394.3
 19 10 2016  16 08  -15.5138 26181.7   3335.1   7.2593 26393.3
 19 10 2016  16 09  -15.5160 26180.4   3333.8   7.2569 26391.9
 19 10 2016  16 10  -15.5153 26179.6   3335.1   7.2600 26391.2
 19 10 2016  16 11  -15.5152 26179.3   3334.6   7.2590 26390.9
 19 10 2016  16 12  -15.5148 26178.5   3336.2   7.2626 26390.2
 19 10 2016  16 13  -15.5157 26178.0   3337.0   7.2645 26389.8
 19 10 2016  16 14  -15.5158 26177.6   3336.9   7.2645 26389.5
 19 10 2016  16 15  -15.5160 26176.5   3337.6   7.2662 26388.4
 19 10 2016  16 16  -15.5163 26175.9   3339.0   7.2694 26388.0
 19 10 2016  16 17  -15.5160 26175.6   3339.0   7.2694 26387.7
 19 10 2016  16 18  -15.5157 26174.9   3340.1   7.2721 26387.1
 19 10 2016  16 19  -15.5163 26174.3   3340.8   7.2737 26386.7
 19 10 2016  16 20  -15.5168 26174.3   3339.7   7.2713 26386.5
 19 10 2016  16 21  -15.5162 26173.5   3341.7   7.2760 26386.0
 19 10 2016  16 22  -15.5170 26173.7   3340.7   7.2737 26386.0
 19 10 2016  16 23  -15.5175 26172.9   3342.9   7.2786 26385.5
 19 10 2016  16 24  -15.5167 26173.3   3343.4   7.2797 26386.0
 19 10 2016  16 25  -15.5182 26173.0   3342.7   7.2782 26385.6
 19 10 2016  16 26  -15.5181 26172.9   3343.8   7.2806 26385.6
 19 10 2016  16 27  -15.5187 26172.0   3344.5   7.2822 26384.8
 19 10 2016  16 28  -15.5189 26171.3   3344.0   7.2814 26384.1
 19 10 2016  16 29  -15.5193 26170.5   3343.5   7.2805 26383.2
 19 10 2016  16 30  -15.5192 26169.5   3345.0   7.2841 26382.5
 19 10 2016  16 31  -15.5204 26168.5   3343.6   7.2813 26381.3
 19 10 2016  16 32  -15.5190 26168.4   3346.2   7.2869 26381.5
 19 10 2016  16 33  -15.5202 26168.5   3346.9   7.2884 26381.6
 19 10 2016  16 34  -15.5199 26168.8   3348.1   7.2910 26382.2
 19 10 2016  16 35  -15.5203 26169.6   3347.6   7.2897 26382.8
 19 10 2016  16 36  -15.5201 26170.2   3348.4   7.2911 26383.5
 19 10 2016  16 37  -15.5203 26170.6   3348.6   7.2915 26383.9
 19 10 2016  16 38  -15.5207 26170.6   3348.0   7.2902 26383.9
 19 10 2016  16 39  -15.5195 26171.0   3349.2   7.2927 26384.4
 19 10 2016  16 40  -15.5203 26171.2   3349.3   7.2930 26384.6
 19 10 2016  16 41  -15.5207 26171.0   3349.7   7.2937 26384.5
 19 10 2016  16 42  -15.5207 26170.9   3348.4   7.2909 26384.2
 19 10 2016  16 43  -15.5210 26170.1   3350.2   7.2951 26383.6
 19 10 2016  16 44  -15.5203 26169.5   3349.9   7.2946 26383.0
 19 10 2016  16 45  -15.5199 26169.2   3350.4   7.2957 26382.8
 19 10 2016  16 46  -15.5215 26168.7   3350.4   7.2959 26382.3
 19 10 2016  16 47  -15.5210 26169.3   3350.3   7.2955 26382.9
 19 10 2016  16 48  -15.5204 26169.2   3351.1   7.2973 26382.9
 19 10 2016  16 49  -15.5219 26167.9   3351.5   7.2986 26381.6
 19 10 2016  16 50  -15.5213 26167.3   3353.0   7.3020 26381.3
 19 10 2016  16 51  -15.5213 26167.3   3354.5   7.3052 26381.5
 19 10 2016  16 52  -15.5209 26167.3   3353.2   7.3023 26381.3
 19 10 2016  16 53  -15.5208 26166.4   3354.3   7.3050 26380.5
 19 10 2016  16 54  -15.5215 26166.0   3354.5   7.3055 26380.1
 19 10 2016  16 55  -15.5217 26165.8   3354.4   7.3054 26379.9
 19 10 2016  16 56  -15.5214 26165.2   3356.3   7.3095 26379.6
 19 10 2016  16 57  -15.5210 26165.1   3356.5   7.3100 26379.5
 19 10 2016  16 58  -15.5214 26164.6   3356.1   7.3094 26378.9
 19 10 2016  16 59  -15.5214 26164.3   3355.5   7.3082 26378.6
 19 10 2016  17 00  -15.5206 26164.2   3357.4   7.3122 26378.8
 19 10 2016  17 01  -15.5204 26164.0   3359.0   7.3158 26378.7
 19 10 2016  17 02  -15.5202 26163.7   3359.5   7.3170 26378.5
 19 10 2016  17 03  -15.5209 26163.6   3359.8   7.3176 26378.5
 19 10 2016  17 04  -15.5207 26163.5   3359.7   7.3175 26378.4
 19 10 2016  17 05  -15.5206 26163.4   3360.2   7.3185 26378.3
 19 10 2016  17 06  -15.5208 26162.9   3361.2   7.3207 26377.9
 19 10 2016  17 07  -15.5213 26162.6   3360.4   7.3191 26377.6
 19 10 2016  17 08  -15.5213 26162.6   3359.7   7.3177 26377.4
 19 10 2016  17 09  -15.5216 26162.4   3361.0   7.3206 26377.4
 19 10 2016  17 10  -15.5216 26162.1   3362.4   7.3236 26377.3
 19 10 2016  17 11  -15.5218 26161.7   3362.6   7.3242 26376.9
 19 10 2016  17 12  -15.5219 26161.0   3363.4   7.3260 26376.3
 19 10 2016  17 13  -15.5226 26160.4   3362.7   7.3248 26375.7
 19 10 2016  17 14  -15.5219 26160.1   3363.2   7.3259 26375.4
 19 10 2016  17 15  -15.5229 26159.5   3363.3   7.3263 26374.8
 19 10 2016  17 16  -15.5219 26159.1   3364.0   7.3278 26374.5
 19 10 2016  17 17  -15.5219 26158.5   3363.8   7.3277 26373.9
 19 10 2016  17 18  -15.5223 26158.0   3365.1   7.3306 26373.5
 19 10 2016  17 19  -15.5223 26157.9   3364.9   7.3301 26373.4
 19 10 2016  17 20  -15.5229 26157.5   3365.6   7.3318 26373.1
 19 10 2016  17 21  -15.5225 26157.6   3366.1   7.3329 26373.3
 19 10 2016  17 22  -15.5228 26157.3   3366.9   7.3347 26373.1
 19 10 2016  17 23  -15.5230 26157.0   3366.9   7.3347 26372.8
 19 10 2016  17 24  -15.5230 26156.8   3367.2   7.3353 26372.7
 19 10 2016  17 25  -15.5235 26156.2   3367.5   7.3362 26372.0
 19 10 2016  17 26  -15.5234 26155.6   3368.0   7.3374 26371.6
 19 10 2016  17 27  -15.5233 26155.3   3368.4   7.3384 26371.3
 19 10 2016  17 28  -15.5230 26155.2   3368.9   7.3394 26371.3
 19 10 2016  17 29  -15.5231 26154.8   3369.3   7.3404 26370.9
 19 10 2016  17 30  -15.5230 26154.5   3369.7   7.3414 26370.6
 19 10 2016  17 31  -15.5231 26154.1   3370.1   7.3424 26370.3
 19 10 2016  17 32  -15.5228 26153.6   3370.4   7.3432 26369.9
 19 10 2016  17 33  -15.5227 26153.1   3370.6   7.3437 26369.4
 19 10 2016  17 34  -15.5227 26152.8   3370.6   7.3439 26369.1
 19 10 2016  17 35  -15.5222 26152.2   3371.8   7.3466 26368.7
 19 10 2016  17 36  -15.5225 26151.7   3372.5   7.3482 26368.2
 19 10 2016  17 37  -15.5213 26151.6   3372.9   7.3492 26368.2
 19 10 2016  17 38  -15.5218 26151.2   3373.8   7.3512 26367.9
 19 10 2016  17 39  -15.5219 26151.3   3373.9   7.3513 26368.1
 19 10 2016  17 40  -15.5217 26150.9   3373.8   7.3514 26367.7
 19 10 2016  17 41  -15.5216 26150.4   3374.5   7.3529 26367.2
 19 10 2016  17 42  -15.5217 26149.9   3374.4   7.3528 26366.7
 19 10 2016  17 43  -15.5216 26149.5   3374.6   7.3534 26366.4
 19 10 2016  17 44  -15.5218 26149.1   3375.4   7.3551 26366.0
 19 10 2016  17 45  -15.5212 26148.7   3375.7   7.3559 26365.7
 19 10 2016  17 46  -15.5215 26148.2   3375.9   7.3565 26365.2
 19 10 2016  17 47  -15.5212 26147.4   3376.2   7.3573 26364.4
 19 10 2016  17 48  -15.5208 26146.8   3376.7   7.3587 26363.9
 19 10 2016  17 49  -15.5204 26146.7   3376.7   7.3588 26363.8
 19 10 2016  17 50  -15.5209 26146.1   3376.8   7.3592 26363.3
 19 10 2016  17 51  -15.5195 26146.5   3379.6   7.3650 26364.0
 19 10 2016  17 52  -15.5197 26147.1   3378.4   7.3622 26364.4
 19 10 2016  17 53  -15.5206 26147.1   3378.6   7.3627 26364.5
 19 10 2016  17 54  -15.5209 26146.9   3379.9   7.3654 26364.5
 19 10 2016  17 55  -15.5200 26146.7   3380.3   7.3664 26364.2
 19 10 2016  17 56  -15.5194 26145.9   3380.2   7.3664 26363.5
 19 10 2016  17 57  -15.5196 26144.9   3380.3   7.3670 26362.5
 19 10 2016  17 58  -15.5183 26144.8   3381.7   7.3701 26362.6
 19 10 2016  17 59  -15.5180 26144.5   3380.8   7.3682 26362.2
 19 10 2016  18 00  -15.5184 26143.9   3380.9   7.3685 26361.6
 19 10 2016  18 01  -15.5177 26143.7   3381.1   7.3691 26361.4
 19 10 2016  18 02  -15.5155 26143.8   3382.9   7.3728 26361.8
 19 10 2016  18 03  -15.5156 26143.6   3384.1   7.3756 26361.7
 19 10 2016  18 04  -15.5169 26143.1   3383.1   7.3736 26361.1
 19 10 2016  18 05  -15.5169 26142.8   3382.0   7.3711 26360.7
 19 10 2016  18 06  -15.5161 26142.3   3384.6   7.3769 26360.5
 19 10 2016  18 07  -15.5167 26141.0   3384.1   7.3762 26359.2
 19 10 2016  18 08  -15.5159 26139.8   3383.3   7.3748 26357.9
 19 10 2016  18 09  -15.5150 26139.2   3384.8   7.3782 26357.4
 19 10 2016  18 10  -15.5160 26138.5   3384.9   7.3786 26356.8
 19 10 2016  18 11  -15.5160 26138.7   3384.9   7.3787 26357.0
 19 10 2016  18 12  -15.5163 26138.7   3384.9   7.3787 26357.0
 19 10 2016  18 13  -15.5156 26138.7   3384.2   7.3770 26356.9
 19 10 2016  18 14  -15.5157 26138.1   3384.7   7.3783 26356.3
 19 10 2016  18 15  -15.5144 26138.0   3387.0   7.3833 26356.6
 19 10 2016  18 16  -15.5148 26138.2   3386.6   7.3824 26356.7
 19 10 2016  18 17  -15.5150 26138.0   3387.3   7.3839 26356.6
 19 10 2016  18 18  -15.5148 26137.8   3389.1   7.3880 26356.6
 19 10 2016  18 19  -15.5155 26137.3   3389.1   7.3880 26356.1
 19 10 2016  18 20  -15.5150 26136.9   3389.9   7.3900 26355.8
 19 10 2016  18 21  -15.5161 26136.5   3389.5   7.3891 26355.4
 19 10 2016  18 22  -15.5164 26136.5   3388.4   7.3868 26355.3
 19 10 2016  18 23  -15.5150 26136.4   3391.2   7.3928 26355.5
 19 10 2016  18 24  -15.5143 26136.8   3392.1   7.3947 26356.0
 19 10 2016  18 25  -15.5149 26137.6   3390.9   7.3918 26356.6
 19 10 2016  18 26  -15.5153 26138.0   3390.9   7.3918 26357.0
 19 10 2016  18 27  -15.5144 26138.9   3392.1   7.3941 26358.1
 19 10 2016  18 28  -15.5152 26138.4   3391.3   7.3926 26357.5
 19 10 2016  18 29  -15.5138 26138.5   3392.6   7.3953 26357.8
 19 10 2016  18 30  -15.5135 26138.5   3392.4   7.3949 26357.7
 19 10 2016  18 31  -15.5143 26137.8   3391.2   7.3925 26356.9
 19 10 2016  18 32  -15.5129 26137.6   3391.9   7.3940 26356.8
 19 10 2016  18 33  -15.5134 26137.2   3391.6   7.3934 26356.3
 19 10 2016  18 34  -15.5157 26136.5   3390.6   7.3915 26355.5
 19 10 2016  18 35  -15.5148 26136.6   3390.9   7.3921 26355.6
 19 10 2016  18 36  -15.5156 26136.0   3390.4   7.3912 26355.0
 19 10 2016  18 37  -15.5159 26135.7   3391.3   7.3932 26354.8
 19 10 2016  18 38  -15.5159 26135.5   3391.7   7.3942 26354.7
 19 10 2016  18 39  -15.5146 26135.6   3393.9   7.3989 26355.0
 19 10 2016  18 40  -15.5146 26135.8   3393.0   7.3969 26355.1
 19 10 2016  18 41  -15.5153 26135.6   3392.8   7.3965 26354.9
 19 10 2016  18 42  -15.5142 26136.1   3393.5   7.3979 26355.5
 19 10 2016  18 43  -15.5138 26136.3   3394.2   7.3992 26355.8
 19 10 2016  18 44  -15.5139 26136.3   3392.9   7.3966 26355.6
 19 10 2016  18 45  -15.5138 26135.7   3394.6   7.4004 26355.3
 19 10 2016  18 46  -15.5151 26134.9   3394.7   7.4007 26354.4
 19 10 2016  18 47  -15.5147 26134.7   3394.2   7.3997 26354.1
 19 10 2016  18 48  -15.5149 26134.4   3394.0   7.3995 26353.9
 19 10 2016  18 49  -15.5148 26134.0   3394.6   7.4008 26353.5
 19 10 2016  18 50  -15.5154 26133.4   3394.3   7.4003 26353.0
 19 10 2016  18 51  -15.5152 26132.9   3395.6   7.4033 26352.6
 19 10 2016  18 52  -15.5162 26132.7   3393.0   7.3976 26352.1
 19 10 2016  18 53  -15.5157 26132.2   3396.0   7.4043 26352.0
 19 10 2016  18 54  -15.5158 26132.1   3394.8   7.4017 26351.7
 19 10 2016  18 55  -15.5147 26132.3   3395.7   7.4036 26352.0
 19 10 2016  18 56  -15.5159 26131.7   3396.1   7.4048 26351.4
 19 10 2016  18 57  -15.5164 26131.4   3395.2   7.4028 26351.1
 19 10 2016  18 58  -15.5165 26131.3   3396.3   7.4053 26351.1
 19 10 2016  18 59  -15.5160 26131.2   3396.2   7.4050 26351.0
 19 10 2016  19 00  -15.5169 26130.6   3396.3   7.4055 26350.4
 19 10 2016  19 01  -15.5166 26130.5   3395.5   7.4037 26350.2
 19 10 2016  19 02  -15.5175 26129.8   3396.5   7.4061 26349.6
 19 10 2016  19 03  -15.5171 26129.9   3396.2   7.4055 26349.7
 19 10 2016  19 04  -15.5178 26129.6   3397.2   7.4076 26349.5
 19 10 2016  19 05  -15.5178 26129.2   3397.5   7.4084 26349.1
 19 10 2016  19 06  -15.5180 26128.7   3397.2   7.4079 26348.6
 19 10 2016  19 07  -15.5180 26128.2   3397.1   7.4078 26348.1
 19 10 2016  19 08  -15.5179 26127.8   3398.2   7.4103 26347.9
 19 10 2016  19 09  -15.5179 26127.8   3397.9   7.4098 26347.8
 19 10 2016  19 10  -15.5181 26127.6   3397.9   7.4097 26347.7
 19 10 2016  19 11  -15.5174 26127.5   3398.8   7.4116 26347.7
 19 10 2016  19 12  -15.5178 26126.9   3398.8   7.4119 26347.1
 19 10 2016  19 13  -15.5171 26126.6   3399.0   7.4123 26346.8
 19 10 2016  19 14  -15.5168 26126.1   3399.2   7.4129 26346.3
 19 10 2016  19 15  -15.5168 26126.0   3398.9   7.4123 26346.1
 19 10 2016  19 16  -15.5168 26125.8   3399.7   7.4141 26346.0
 19 10 2016  19 17  -15.5160 26125.8   3399.9   7.4146 26346.1
 19 10 2016  19 18  -15.5162 26125.6   3399.5   7.4138 26345.8
 19 10 2016  19 19  -15.5159 26125.2   3400.0   7.4150 26345.5
 19 10 2016  19 20  -15.5150 26125.0   3399.7   7.4143 26345.3
 19 10 2016  19 21  -15.5142 26124.5   3401.0   7.4172 26344.9
 19 10 2016  19 22  -15.5135 26124.2   3401.9   7.4192 26344.8
 19 10 2016  19 23  -15.5126 26124.2   3401.2   7.4177 26344.7
 19 10 2016  19 24  -15.5131 26124.0   3401.2   7.4178 26344.4
 19 10 2016  19 25  -15.5134 26123.8   3400.4   7.4162 26344.1
 19 10 2016  19 26  -15.5131 26123.5   3401.3   7.4182 26344.0
 19 10 2016  19 27  -15.5130 26123.4   3400.7   7.4171 26343.8
 19 10 2016  19 28  -15.5121 26123.1   3400.8   7.4173 26343.5
 19 10 2016  19 29  -15.5121 26122.8   3400.3   7.4163 26343.1
 19 10 2016  19 30  -15.5122 26122.3   3400.4   7.4166 26342.6
 19 10 2016  19 31  -15.5114 26121.9   3400.2   7.4163 26342.3
 19 10 2016  19 32  -15.5128 26121.1   3400.7   7.4175 26341.6
 19 10 2016  19 33  -15.5122 26121.0   3401.7   7.4198 26341.6
 19 10 2016  19 34  -15.5127 26120.9   3400.4   7.4171 26341.3
 19 10 2016  19 35  -15.5136 26120.7   3400.2   7.4166 26341.0
 19 10 2016  19 36  -15.5130 26120.7   3400.2   7.4167 26341.0
 19 10 2016  19 37  -15.5144 26120.1   3400.2   7.4169 26340.5
 19 10 2016  19 38  -15.5132 26120.2   3401.9   7.4204 26340.8
 19 10 2016  19 39  -15.5140 26119.9   3399.8   7.4161 26340.3
 19 10 2016  19 40  -15.5134 26119.6   3400.9   7.4185 26340.1
 19 10 2016  19 41  -15.5139 26119.6   3400.1   7.4169 26339.9
 19 10 2016  19 42  -15.5142 26119.4   3400.3   7.4172 26339.8
 19 10 2016  19 43  -15.5129 26119.5   3401.4   7.4196 26340.0
 19 10 2016  19 44  -15.5143 26119.0   3400.8   7.4184 26339.5
 19 10 2016  19 45  -15.5134 26119.2   3399.4   7.4154 26339.5
 19 10 2016  19 46  -15.5134 26118.4   3401.7   7.4204 26339.0
 19 10 2016  19 47  -15.5132 26118.3   3399.5   7.4159 26338.6
 19 10 2016  19 48  -15.5139 26117.3   3400.2   7.4175 26337.7
 19 10 2016  19 49  -15.5137 26117.1   3399.9   7.4170 26337.5
 19 10 2016  19 50  -15.5137 26117.1   3400.8   7.4190 26337.6
 19 10 2016  19 51  -15.5137 26117.2   3401.2   7.4197 26337.8
 19 10 2016  19 52  -15.5141 26117.2   3401.1   7.4196 26337.7
 19 10 2016  19 53  -15.5144 26117.4   3401.0   7.4194 26337.9
 19 10 2016  19 54  -15.5146 26117.9   3401.4   7.4200 26338.5
 19 10 2016  19 55  -15.5145 26118.4   3401.7   7.4205 26339.0
 19 10 2016  19 56  -15.5141 26118.5   3401.7   7.4205 26339.1
 19 10 2016  19 57  -15.5137 26118.5   3401.6   7.4203 26339.1
 19 10 2016  19 58  -15.5133 26118.3   3401.4   7.4200 26338.9
 19 10 2016  19 59  -15.5129 26117.9   3400.9   7.4189 26338.4
 19 10 2016  20 00  -15.5126 26117.8   3401.2   7.4195 26338.3
 19 10 2016  20 01  -15.5120 26117.8   3401.4   7.4200 26338.3
 19 10 2016  20 02  -15.5126 26117.7   3400.3   7.4176 26338.1
 19 10 2016  20 03  -15.5123 26117.4   3400.6   7.4185 26337.8
 19 10 2016  20 04  -15.5123 26117.1   3400.7   7.4187 26337.6
 19 10 2016  20 05  -15.5125 26116.9   3400.2   7.4178 26337.3
 19 10 2016  20 06  -15.5124 26117.0   3400.5   7.4184 26337.4
 19 10 2016  20 07  -15.5126 26116.8   3400.5   7.4184 26337.2
 19 10 2016  20 08  -15.5127 26116.6   3400.3   7.4181 26337.0
 19 10 2016  20 09  -15.5133 26116.4   3400.1   7.4175 26336.8
 19 10 2016  20 10  -15.5132 26116.4   3400.3   7.4180 26336.9
 19 10 2016  20 11  -15.5132 26116.5   3400.5   7.4184 26337.0
 19 10 2016  20 12  -15.5136 26116.3   3400.2   7.4178 26336.7
 19 10 2016  20 13  -15.5137 26116.5   3400.6   7.4186 26336.9
 19 10 2016  20 14  -15.5139 26116.7   3400.3   7.4180 26337.1
 19 10 2016  20 15  -15.5136 26116.6   3401.2   7.4199 26337.2
 19 10 2016  20 16  -15.5137 26116.8   3400.5   7.4185 26337.2
 19 10 2016  20 17  -15.5138 26117.2   3400.4   7.4180 26337.7
 19 10 2016  20 18  -15.5137 26117.3   3400.7   7.4187 26337.8
 19 10 2016  20 19  -15.5135 26117.5   3400.8   7.4187 26337.9
 19 10 2016  20 20  -15.5136 26117.6   3400.7   7.4187 26338.1
 19 10 2016  20 21  -15.5134 26117.5   3400.5   7.4181 26338.0
 19 10 2016  20 22  -15.5135 26117.4   3400.5   7.4183 26337.8
 19 10 2016  20 23  -15.5136 26117.3   3400.4   7.4181 26337.8
 19 10 2016  20 24  -15.5136 26117.4   3400.6   7.4185 26337.8
 19 10 2016  20 25  -15.5138 26117.5   3400.4   7.4180 26337.9
 19 10 2016  20 26  -15.5137 26117.6   3400.6   7.4184 26338.0
 19 10 2016  20 27  -15.5139 26117.8   3400.9   7.4189 26338.2
 19 10 2016  20 28  -15.5136 26118.1   3400.9   7.4189 26338.6
 19 10 2016  20 29  -15.5138 26118.1   3400.7   7.4185 26338.6
 19 10 2016  20 30  -15.5138 26118.0   3401.2   7.4195 26338.6
 19 10 2016  20 31  -15.5144 26117.7   3401.3   7.4198 26338.3
 19 10 2016  20 32  -15.5135 26117.8   3401.6   7.4204 26338.4
 19 10 2016  20 33  -15.5134 26118.2   3399.9   7.4166 26338.5
 19 10 2016  20 34  -15.5139 26118.2   3399.8   7.4164 26338.6
 19 10 2016  20 35  -15.5144 26118.2   3399.7   7.4162 26338.6
 19 10 2016  20 36  -15.5145 26118.1   3400.6   7.4181 26338.6
 19 10 2016  20 37  -15.5134 26119.0   3401.0   7.4189 26339.5
 19 10 2016  20 38  -15.5144 26118.9   3402.0   7.4209 26339.6
 19 10 2016  20 39  -15.5143 26119.4   3400.8   7.4184 26339.8
 19 10 2016  20 40  -15.5134 26119.7   3401.6   7.4199 26340.3
 19 10 2016  20 41  -15.5126 26119.8   3402.7   7.4222 26340.5
 19 10 2016  20 42  -15.5130 26119.9   3402.5   7.4218 26340.6
 19 10 2016  20 43  -15.5128 26120.1   3401.6   7.4199 26340.6
 19 10 2016  20 44  -15.5130 26119.9   3401.9   7.4205 26340.5
 19 10 2016  20 45  -15.5131 26119.6   3401.7   7.4201 26340.1
 19 10 2016  20 46  -15.5132 26119.3   3401.9   7.4207 26339.9
 19 10 2016  20 47  -15.5135 26119.0   3401.6   7.4201 26339.6
 19 10 2016  20 48  -15.5132 26118.9   3402.3   7.4217 26339.5
 19 10 2016  20 49  -15.5130 26118.8   3402.9   7.4231 26339.6
 19 10 2016  20 50  -15.5144 26118.6   3402.2   7.4216 26339.3
 19 10 2016  20 51  -15.5149 26119.2   3400.4   7.4175 26339.6
 19 10 2016  20 52  -15.5139 26119.6   3402.5   7.4220 26340.3
 19 10 2016  20 53  -15.5153 26119.6   3401.6   7.4200 26340.2
 19 10 2016  20 54  -15.5144 26120.2   3400.8   7.4181 26340.7
 19 10 2016  20 55  -15.5148 26120.3   3401.9   7.4204 26340.9
 19 10 2016  20 56  -15.5137 26121.0   3402.5   7.4216 26341.6
 19 10 2016  20 57  -15.5146 26121.1   3401.9   7.4202 26341.7
 19 10 2016  20 58  -15.5135 26121.5   3403.2   7.4229 26342.3
 19 10 2016  20 59  -15.5144 26121.7   3402.4   7.4211 26342.4
 19 10 2016  21 00  -15.5133 26122.2   3402.8   7.4219 26342.9
 19 10 2016  21 01  -15.5128 26122.4   3403.3   7.4228 26343.2
 19 10 2016  21 02  -15.5134 26122.5   3403.1   7.4225 26343.3
 19 10 2016  21 03  -15.5126 26122.7   3403.5   7.4233 26343.5
 19 10 2016  21 04  -15.5134 26122.6   3402.6   7.4214 26343.3
 19 10 2016  21 05  -15.5131 26122.7   3403.5   7.4231 26343.5
 19 10 2016  21 06  -15.5129 26123.2   3402.1   7.4200 26343.8
 19 10 2016  21 07  -15.5129 26123.1   3403.6   7.4233 26343.9
 19 10 2016  21 08  -15.5128 26123.3   3403.2   7.4224 26344.0
 19 10 2016  21 09  -15.5132 26123.3   3403.3   7.4226 26344.1
 19 10 2016  21 10  -15.5132 26123.6   3403.2   7.4222 26344.3
 19 10 2016  21 11  -15.5131 26123.8   3404.3   7.4245 26344.7
 19 10 2016  21 12  -15.5133 26123.7   3403.9   7.4237 26344.5
 19 10 2016  21 13  -15.5131 26123.8   3404.1   7.4241 26344.6
 19 10 2016  21 14  -15.5136 26123.9   3403.7   7.4233 26344.7
 19 10 2016  21 15  -15.5139 26124.0   3404.4   7.4247 26344.9
 19 10 2016  21 16  -15.5133 26124.6   3404.3   7.4245 26345.4
 19 10 2016  21 17  -15.5141 26125.0   3404.1   7.4238 26345.8
 19 10 2016  21 18  -15.5131 26125.9   3405.2   7.4259 26346.9
 19 10 2016  21 19  -15.5131 26126.7   3404.4   7.4240 26347.6
 19 10 2016  21 20  -15.5122 26126.8   3404.8   7.4249 26347.7
 19 10 2016  21 21  -15.5125 26126.4   3405.6   7.4268 26347.4
 19 10 2016  21 22  -15.5118 26127.7   3405.9   7.4270 26348.7
 19 10 2016  21 23  -15.5121 26128.2   3405.3   7.4256 26349.2
 19 10 2016  21 24  -15.5119 26128.6   3405.4   7.4256 26349.5
 19 10 2016  21 25  -15.5117 26128.8   3404.7   7.4241 26349.7
 19 10 2016  21 26  -15.5118 26128.9   3403.9   7.4224 26349.7
 19 10 2016  21 27  -15.5117 26128.9   3404.5   7.4237 26349.7
 19 10 2016  21 28  -15.5119 26129.3   3403.9   7.4222 26350.1
 19 10 2016  21 29  -15.5116 26129.7   3405.0   7.4246 26350.6
 19 10 2016  21 30  -15.5112 26129.7   3404.4   7.4231 26350.6
 19 10 2016  21 31  -15.5110 26129.4   3405.6   7.4258 26350.4
 19 10 2016  21 32  -15.5111 26129.8   3404.4   7.4231 26350.6
 19 10 2016  21 33  -15.5112 26129.9   3404.5   7.4234 26350.7
 19 10 2016  21 34  -15.5119 26129.9   3402.8   7.4196 26350.6
 19 10 2016  21 35  -15.5126 26130.0   3403.8   7.4218 26350.7
 19 10 2016  21 36  -15.5114 26130.4   3405.9   7.4262 26351.5
 19 10 2016  21 37  -15.5106 26131.1   3406.1   7.4264 26352.1
 19 10 2016  21 38  -15.5112 26131.6   3404.1   7.4220 26352.4
 19 10 2016  21 39  -15.5105 26131.9   3405.7   7.4254 26352.9
 19 10 2016  21 40  -15.5110 26132.2   3404.5   7.4228 26353.0
 19 10 2016  21 41  -15.5107 26132.5   3404.4   7.4223 26353.3
 19 10 2016  21 42  -15.5111 26132.4   3404.9   7.4235 26353.3
 19 10 2016  21 43  -15.5116 26132.5   3404.3   7.4222 26353.3
 19 10 2016  21 44  -15.5113 26132.7   3403.9   7.4212 26353.5
 19 10 2016  21 45  -15.5106 26133.2   3403.7   7.4206 26353.9
 19 10 2016  21 46  -15.5107 26133.2   3403.9   7.4212 26353.9
 19 10 2016  21 47  -15.5103 26133.3   3404.6   7.4225 26354.2
 19 10 2016  21 48  -15.5106 26133.4   3403.7   7.4207 26354.2
 19 10 2016  21 49  -15.5101 26134.0   3402.7   7.4182 26354.5
 19 10 2016  21 50  -15.5113 26133.6   3403.2   7.4195 26354.3
 19 10 2016  21 51  -15.5112 26133.8   3403.3   7.4196 26354.5
 19 10 2016  21 52  -15.5099 26134.4   3402.7   7.4181 26354.9
 19 10 2016  21 53  -15.5106 26134.3   3402.5   7.4178 26354.9
 19 10 2016  21 54  -15.5109 26134.0   3403.7   7.4205 26354.8
 19 10 2016  21 55  -15.5099 26134.6   3404.0   7.4210 26355.3
 19 10 2016  21 56  -15.5106 26134.8   3402.5   7.4176 26355.4
 19 10 2016  21 57  -15.5101 26135.0   3402.9   7.4184 26355.6
 19 10 2016  21 58  -15.5102 26135.0   3403.0   7.4187 26355.6
 19 10 2016  21 59  -15.5095 26135.1   3403.1   7.4188 26355.7
 19 10 2016  22 00  -15.5095 26135.0   3403.7   7.4202 26355.7
 19 10 2016  22 01  -15.5104 26134.7   3403.5   7.4198 26355.4
 19 10 2016  22 02  -15.5102 26134.8   3403.4   7.4197 26355.5
 19 10 2016  22 03  -15.5109 26135.0   3402.9   7.4184 26355.6
 19 10 2016  22 04  -15.5101 26135.5   3402.1   7.4166 26356.0
 19 10 2016  22 05  -15.5099 26135.6   3403.1   7.4188 26356.2
 19 10 2016  22 06  -15.5107 26135.4   3403.2   7.4190 26356.0
 19 10 2016  22 07  -15.5108 26135.3   3402.8   7.4182 26355.9
 19 10 2016  22 08  -15.5110 26135.0   3404.0   7.4207 26355.8
 19 10 2016  22 09  -15.5118 26135.0   3402.6   7.4179 26355.5
 19 10 2016  22 10  -15.5108 26135.1   3403.9   7.4206 26355.8
 19 10 2016  22 11  -15.5107 26135.5   3401.8   7.4159 26356.0
 19 10 2016  22 12  -15.5119 26135.1   3401.5   7.4155 26355.5
 19 10 2016  22 13  -15.5114 26135.0   3402.8   7.4183 26355.6
 19 10 2016  22 14  -15.5118 26134.7   3402.9   7.4185 26355.3
 19 10 2016  22 15  -15.5119 26134.7   3402.3   7.4172 26355.2
 19 10 2016  22 16  -15.5121 26134.5   3402.4   7.4175 26355.0
 19 10 2016  22 17  -15.5116 26134.5   3402.9   7.4186 26355.1
 19 10 2016  22 18  -15.5122 26134.4   3402.2   7.4170 26354.9
 19 10 2016  22 19  -15.5118 26134.6   3403.0   7.4189 26355.2
 19 10 2016  22 20  -15.5125 26134.6   3402.7   7.4182 26355.2
 19 10 2016  22 21  -15.5121 26134.7   3403.0   7.4187 26355.4
 19 10 2016  22 22  -15.5117 26134.9   3403.4   7.4196 26355.5
 19 10 2016  22 23  -15.5130 26134.7   3402.9   7.4184 26355.3
 19 10 2016  22 24  -15.5109 26135.1   3404.7   7.4223 26356.0
 19 10 2016  22 25  -15.5108 26135.2   3404.7   7.4223 26356.0
 19 10 2016  22 26  -15.5117 26134.9   3404.6   7.4220 26355.7
 19 10 2016  22 27  -15.5118 26135.0   3403.2   7.4191 26355.7
 19 10 2016  22 28  -15.5115 26135.0   3402.3   7.4171 26355.5
 19 10 2016  22 29  -15.5116 26134.7   3403.1   7.4190 26355.4
 19 10 2016  22 30  -15.5108 26134.9   3402.5   7.4177 26355.5
 19 10 2016  22 31  -15.5106 26134.7   3403.6   7.4200 26355.4
 19 10 2016  22 32  -15.5109 26135.2   3403.1   7.4188 26355.8
 19 10 2016  22 33  -15.5108 26135.6   3402.5   7.4175 26356.2
 19 10 2016  22 34  -15.5095 26136.0   3403.8   7.4200 26356.7
 19 10 2016  22 35  -15.5105 26135.8   3404.1   7.4207 26356.5
 19 10 2016  22 36  -15.5108 26135.7   3404.4   7.4216 26356.5
 19 10 2016  22 37  -15.5110 26136.0   3402.1   7.4165 26356.5
 19 10 2016  22 38  -15.5090 26136.1   3404.6   7.4218 26356.9
 19 10 2016  22 39  -15.5106 26135.8   3403.4   7.4193 26356.5
 19 10 2016  22 40  -15.5084 26136.5   3404.5   7.4214 26357.3
 19 10 2016  22 41  -15.5096 26136.3   3404.0   7.4205 26357.1
 19 10 2016  22 42  -15.5084 26136.7   3404.1   7.4206 26357.4
 19 10 2016  22 43  -15.5091 26136.3   3404.3   7.4211 26357.1
 19 10 2016  22 44  -15.5089 26136.4   3403.5   7.4193 26357.0
 19 10 2016  22 45  -15.5093 26136.1   3404.1   7.4208 26356.9
 19 10 2016  22 46  -15.5097 26136.1   3402.6   7.4176 26356.7
 19 10 2016  22 47  -15.5086 26136.4   3403.2   7.4188 26357.0
 19 10 2016  22 48  -15.5093 26136.3   3403.0   7.4183 26356.9
 19 10 2016  22 49  -15.5093 26136.1   3403.6   7.4197 26356.7
 19 10 2016  22 50  -15.5086 26136.0   3404.5   7.4216 26356.8
 19 10 2016  22 51  -15.5094 26135.6   3404.5   7.4217 26356.4
 19 10 2016  22 52  -15.5077 26135.7   3405.6   7.4240 26356.6
 19 10 2016  22 53  -15.5097 26135.3   3403.7   7.4200 26356.0
 19 10 2016  22 54  -15.5084 26135.7   3402.8   7.4180 26356.3
 19 10 2016  22 55  -15.5078 26135.3   3405.0   7.4229 26356.2
 19 10 2016  22 56  -15.5099 26134.7   3403.3   7.4194 26355.4
 19 10 2016  22 57  -15.5092 26134.6   3404.1   7.4211 26355.3
 19 10 2016  22 58  -15.5089 26134.8   3402.7   7.4180 26355.4
 19 10 2016  22 59  -15.5091 26134.9   3402.1   7.4168 26355.4
 19 10 2016  23 00  -15.5098 26134.4   3403.7   7.4203 26355.1
 19 10 2016  23 01  -15.5084 26134.9   3402.4   7.4174 26355.5
 19 10 2016  23 02  -15.5096 26134.4   3403.9   7.4209 26355.1
 19 10 2016  23 03  -15.5087 26134.6   3403.2   7.4193 26355.3
 19 10 2016  23 04  -15.5078 26135.1   3402.7   7.4179 26355.7
 19 10 2016  23 05  -15.5074 26134.9   3404.7   7.4223 26355.7
 19 10 2016  23 06  -15.5080 26134.6   3404.0   7.4209 26355.3
 19 10 2016  23 07  -15.5086 26134.0   3404.6   7.4224 26354.9
 19 10 2016  23 08  -15.5084 26134.0   3404.7   7.4225 26354.9
 19 10 2016  23 09  -15.5092 26133.9   3403.3   7.4196 26354.6
 19 10 2016  23 10  -15.5085 26133.9   3403.7   7.4205 26354.6
 19 10 2016  23 11  -15.5088 26133.6   3403.9   7.4210 26354.4
 19 10 2016  23 12  -15.5084 26133.7   3403.6   7.4203 26354.4
 19 10 2016  23 13  -15.5086 26133.7   3403.3   7.4196 26354.3
 19 10 2016  23 14  -15.5084 26133.5   3404.8   7.4231 26354.4
 19 10 2016  23 15  -15.5088 26133.5   3403.8   7.4209 26354.2
 19 10 2016  23 16  -15.5083 26133.3   3404.6   7.4226 26354.1
 19 10 2016  23 17  -15.5097 26132.9   3403.7   7.4207 26353.6
 19 10 2016  23 18  -15.5072 26133.6   3404.3   7.4217 26354.4
 19 10 2016  23 19  -15.5077 26133.0   3404.9   7.4232 26353.9
 19 10 2016  23 20  -15.5087 26132.7   3403.8   7.4210 26353.4
 19 10 2016  23 21  -15.5078 26132.9   3403.9   7.4211 26353.6
 19 10 2016  23 22  -15.5082 26132.6   3403.5   7.4204 26353.3
 19 10 2016  23 23  -15.5079 26132.7   3403.9   7.4213 26353.5
 19 10 2016  23 24  -15.5075 26132.7   3404.5   7.4225 26353.5
 19 10 2016  23 25  -15.5068 26132.7   3406.0   7.4258 26353.7
 19 10 2016  23 26  -15.5088 26132.4   3403.6   7.4207 26353.1
 19 10 2016  23 27  -15.5075 26132.3   3405.8   7.4255 26353.3
 19 10 2016  23 28  -15.5086 26132.1   3404.4   7.4226 26352.9
 19 10 2016  23 29  -15.5091 26132.0   3403.3   7.4202 26352.7
 19 10 2016  23 30  -15.5065 26132.6   3403.9   7.4213 26353.3
 19 10 2016  23 31  -15.5071 26132.4   3403.8   7.4211 26353.1
 19 10 2016  23 32  -15.5083 26132.1   3403.4   7.4203 26352.8
 19 10 2016  23 33  -15.5073 26132.2   3404.0   7.4217 26352.9
 19 10 2016  23 34  -15.5072 26131.9   3404.2   7.4221 26352.7
 19 10 2016  23 35  -15.5073 26131.6   3404.1   7.4220 26352.4
 19 10 2016  23 36  -15.5071 26131.7   3404.5   7.4229 26352.5
 19 10 2016  23 37  -15.5077 26131.6   3403.2   7.4201 26352.3
 19 10 2016  23 38  -15.5068 26131.5   3404.7   7.4234 26352.4
 19 10 2016  23 39  -15.5072 26131.4   3403.9   7.4216 26352.1
 19 10 2016  23 40  -15.5068 26131.4   3404.7   7.4232 26352.2
 19 10 2016  23 41  -15.5072 26131.3   3403.8   7.4215 26352.0
 19 10 2016  23 42  -15.5070 26131.2   3404.3   7.4226 26352.0
 19 10 2016  23 43  -15.5069 26131.2   3404.1   7.4220 26352.0
 19 10 2016  23 44  -15.5069 26131.1   3404.0   7.4219 26351.9
 19 10 2016  23 45  -15.5066 26131.0   3404.7   7.4235 26351.9
 19 10 2016  23 46  -15.5071 26130.9   3403.9   7.4218 26351.6
 19 10 2016  23 47  -15.5070 26130.7   3403.9   7.4219 26351.5
 19 10 2016  23 48  -15.5067 26130.7   3404.2   7.4225 26351.5
 19 10 2016  23 49  -15.5066 26130.7   3404.7   7.4235 26351.6
 19 10 2016  23 50  -15.5068 26130.5   3404.5   7.4231 26351.3
 19 10 2016  23 51  -15.5067 26130.5   3404.5   7.4232 26351.3
 19 10 2016  23 52  -15.5064 26130.6   3404.2   7.4225 26351.4
 19 10 2016  23 53  -15.5064 26130.4   3404.3   7.4227 26351.2
 19 10 2016  23 54  -15.5060 26130.4   3405.2   7.4247 26351.3
 19 10 2016  23 55  -15.5065 26130.5   3403.9   7.4220 26351.3
 19 10 2016  23 56  -15.5063 26130.3   3405.2   7.4247 26351.2
 19 10 2016  23 57  -15.5067 26130.3   3403.9   7.4220 26351.1
 19 10 2016  23 58  -15.5070 26129.9   3404.3   7.4230 26350.7
 19 10 2016  23 59  -15.5067 26129.9   3404.3   7.4229 26350.7
