Manaus - AM                    UNIVAP-03  <294> 1 Min. Reported data

 DD MM YYYY  HH MM   D(Deg)  H(nT)   Z(nT)   I(Deg)   F(nT)

 20 10 2016  00 00  -15.5067 26130.1   3404.4   7.4231 26350.9
 20 10 2016  00 01  -15.5070 26129.9   3404.6   7.4235 26350.7
 20 10 2016  00 02  -15.5071 26129.8   3404.6   7.4235 26350.7
 20 10 2016  00 03  -15.5072 26130.1   3404.8   7.4238 26351.0
 20 10 2016  00 04  -15.5075 26130.1   3405.0   7.4244 26351.0
 20 10 2016  00 05  -15.5076 26130.1   3404.8   7.4239 26351.0
 20 10 2016  00 06  -15.5080 26129.9   3405.0   7.4243 26350.8
 20 10 2016  00 07  -15.5082 26129.7   3404.3   7.4230 26350.5
 20 10 2016  00 08  -15.5077 26129.8   3404.7   7.4238 26350.7
 20 10 2016  00 09  -15.5077 26129.9   3405.0   7.4243 26350.8
 20 10 2016  00 10  -15.5076 26130.1   3405.2   7.4248 26351.1
 20 10 2016  00 11  -15.5077 26130.2   3405.1   7.4244 26351.2
 20 10 2016  00 12  -15.5079 26130.1   3405.5   7.4255 26351.0
 20 10 2016  00 13  -15.5078 26130.3   3405.2   7.4248 26351.2
 20 10 2016  00 14  -15.5085 26130.2   3405.1   7.4246 26351.1
 20 10 2016  00 15  -15.5074 26130.6   3405.4   7.4251 26351.5
 20 10 2016  00 16  -15.5076 26130.8   3405.3   7.4248 26351.7
 20 10 2016  00 17  -15.5066 26131.1   3407.4   7.4293 26352.3
 20 10 2016  00 18  -15.5079 26131.4   3405.1   7.4241 26352.3
 20 10 2016  00 19  -15.5072 26131.8   3406.2   7.4264 26352.9
 20 10 2016  00 20  -15.5071 26132.3   3407.0   7.4280 26353.5
 20 10 2016  00 21  -15.5076 26133.2   3404.8   7.4231 26354.0
 20 10 2016  00 22  -15.5063 26134.0   3406.8   7.4271 26355.1
 20 10 2016  00 23  -15.5068 26134.1   3407.7   7.4290 26355.4
 20 10 2016  00 24  -15.5089 26134.2   3405.0   7.4232 26355.1
 20 10 2016  00 25  -15.5077 26134.7   3405.8   7.4247 26355.6
 20 10 2016  00 26  -15.5058 26134.4   3407.3   7.4280 26355.6
 20 10 2016  00 27  -15.5052 26133.5   3406.5   7.4267 26354.6
 20 10 2016  00 28  -15.5065 26132.5   3405.2   7.4240 26353.4
 20 10 2016  00 29  -15.5053 26132.2   3405.2   7.4242 26353.1
 20 10 2016  00 30  -15.5057 26132.2   3404.1   7.4218 26353.0
 20 10 2016  00 31  -15.5050 26132.1   3404.9   7.4237 26353.0
 20 10 2016  00 32  -15.5050 26131.6   3404.4   7.4226 26352.4
 20 10 2016  00 33  -15.5041 26130.9   3404.8   7.4238 26351.8
 20 10 2016  00 34  -15.5041 26130.5   3404.3   7.4227 26351.3
 20 10 2016  00 35  -15.5032 26130.2   3405.4   7.4253 26351.2
 20 10 2016  00 36  -15.5035 26130.1   3404.6   7.4234 26351.0
 20 10 2016  00 37  -15.5025 26130.2   3405.0   7.4242 26351.1
 20 10 2016  00 38  -15.5032 26129.4   3405.4   7.4255 26350.4
 20 10 2016  00 39  -15.5028 26129.1   3406.0   7.4267 26350.1
 20 10 2016  00 40  -15.5033 26128.8   3405.6   7.4260 26349.8
 20 10 2016  00 41  -15.5030 26128.9   3404.1   7.4228 26349.7
 20 10 2016  00 42  -15.5030 26128.8   3404.4   7.4235 26349.6
 20 10 2016  00 43  -15.5025 26129.0   3403.5   7.4215 26349.8
 20 10 2016  00 44  -15.5025 26128.8   3405.0   7.4246 26349.7
 20 10 2016  00 45  -15.5025 26128.9   3405.2   7.4251 26349.8
 20 10 2016  00 46  -15.5021 26129.2   3405.0   7.4247 26350.1
 20 10 2016  00 47  -15.5038 26129.0   3404.6   7.4238 26349.9
 20 10 2016  00 48  -15.5032 26129.3   3406.4   7.4275 26350.4
 20 10 2016  00 49  -15.5041 26129.6   3405.8   7.4263 26350.7
 20 10 2016  00 50  -15.5035 26130.3   3405.4   7.4252 26351.3
 20 10 2016  00 51  -15.5032 26130.5   3406.5   7.4275 26351.6
 20 10 2016  00 52  -15.5025 26130.9   3406.8   7.4280 26352.1
 20 10 2016  00 53  -15.5034 26131.4   3405.4   7.4249 26352.4
 20 10 2016  00 54  -15.5047 26131.1   3404.7   7.4233 26351.9
 20 10 2016  00 55  -15.5034 26131.0   3405.4   7.4250 26352.0
 20 10 2016  00 56  -15.5036 26130.4   3404.9   7.4239 26351.3
 20 10 2016  00 57  -15.5029 26130.2   3405.0   7.4242 26351.1
 20 10 2016  00 58  -15.5036 26129.3   3405.2   7.4251 26350.3
 20 10 2016  00 59  -15.5047 26128.6   3405.9   7.4267 26349.7
 20 10 2016  01 00  -15.5045 26128.5   3403.6   7.4217 26349.2
 20 10 2016  01 01  -15.5043 26127.9   3404.4   7.4238 26348.7
 20 10 2016  01 02  -15.5038 26127.5   3404.0   7.4230 26348.4
 20 10 2016  01 03  -15.5033 26127.3   3404.4   7.4237 26348.2
 20 10 2016  01 04  -15.5036 26127.0   3404.8   7.4248 26348.0
 20 10 2016  01 05  -15.5034 26127.0   3404.6   7.4244 26347.9
 20 10 2016  01 06  -15.5025 26127.0   3405.0   7.4252 26347.9
 20 10 2016  01 07  -15.5028 26126.7   3404.9   7.4250 26347.6
 20 10 2016  01 08  -15.5043 26126.5   3403.3   7.4218 26347.2
 20 10 2016  01 09  -15.5040 26126.3   3404.7   7.4248 26347.2
 20 10 2016  01 10  -15.5037 26126.5   3404.1   7.4234 26347.3
 20 10 2016  01 11  -15.5042 26126.2   3405.1   7.4256 26347.1
 20 10 2016  01 12  -15.5044 26126.2   3405.5   7.4265 26347.2
 20 10 2016  01 13  -15.5058 26126.0   3404.5   7.4243 26346.9
 20 10 2016  01 14  -15.5042 26126.1   3407.3   7.4304 26347.3
 20 10 2016  01 15  -15.5057 26125.8   3405.6   7.4268 26346.8
 20 10 2016  01 16  -15.5057 26125.8   3405.4   7.4264 26346.8
 20 10 2016  01 17  -15.5045 26126.1   3405.3   7.4260 26347.1
 20 10 2016  01 18  -15.5046 26125.8   3407.5   7.4310 26347.0
 20 10 2016  01 19  -15.5058 26125.8   3405.5   7.4267 26346.8
 20 10 2016  01 20  -15.5066 26125.3   3406.1   7.4281 26346.4
 20 10 2016  01 21  -15.5059 26125.8   3405.4   7.4265 26346.8
 20 10 2016  01 22  -15.5061 26125.7   3405.7   7.4272 26346.7
 20 10 2016  01 23  -15.5063 26125.9   3404.8   7.4250 26346.8
 20 10 2016  01 24  -15.5073 26125.6   3405.0   7.4256 26346.5
 20 10 2016  01 25  -15.5068 26125.7   3405.5   7.4266 26346.7
 20 10 2016  01 26  -15.5074 26125.4   3406.4   7.4287 26346.6
 20 10 2016  01 27  -15.5066 26125.8   3405.1   7.4257 26346.8
 20 10 2016  01 28  -15.5068 26125.4   3406.0   7.4278 26346.5
 20 10 2016  01 29  -15.5065 26125.7   3404.8   7.4252 26346.6
 20 10 2016  01 30  -15.5064 26125.4   3405.5   7.4268 26346.4
 20 10 2016  01 31  -15.5063 26125.1   3406.5   7.4290 26346.2
 20 10 2016  01 32  -15.5067 26125.3   3404.9   7.4255 26346.2
 20 10 2016  01 33  -15.5066 26125.0   3406.9   7.4299 26346.2
 20 10 2016  01 34  -15.5069 26125.5   3405.6   7.4269 26346.5
 20 10 2016  01 35  -15.5053 26125.8   3406.8   7.4294 26347.0
 20 10 2016  01 36  -15.5046 26125.9   3407.9   7.4318 26347.3
 20 10 2016  01 37  -15.5042 26126.0   3407.1   7.4301 26347.2
 20 10 2016  01 38  -15.5057 26125.7   3406.0   7.4278 26346.8
 20 10 2016  01 39  -15.5044 26125.8   3405.9   7.4275 26346.9
 20 10 2016  01 40  -15.5045 26125.8   3404.9   7.4253 26346.8
 20 10 2016  01 41  -15.5052 26125.2   3405.8   7.4274 26346.3
 20 10 2016  01 42  -15.5047 26125.3   3406.3   7.4284 26346.5
 20 10 2016  01 43  -15.5054 26124.8   3406.8   7.4297 26346.0
 20 10 2016  01 44  -15.5046 26125.3   3405.7   7.4272 26346.4
 20 10 2016  01 45  -15.5061 26125.1   3405.3   7.4265 26346.1
 20 10 2016  01 46  -15.5042 26125.4   3408.2   7.4325 26346.8
 20 10 2016  01 47  -15.5058 26125.0   3406.8   7.4296 26346.2
 20 10 2016  01 48  -15.5051 26125.4   3407.0   7.4299 26346.6
 20 10 2016  01 49  -15.5040 26125.6   3407.7   7.4313 26346.9
 20 10 2016  01 50  -15.5051 26125.4   3405.7   7.4272 26346.5
 20 10 2016  01 51  -15.5052 26125.2   3406.1   7.4281 26346.3
 20 10 2016  01 52  -15.5063 26125.0   3404.6   7.4249 26345.9
 20 10 2016  01 53  -15.5049 26125.3   3406.8   7.4296 26346.5
 20 10 2016  01 54  -15.5052 26125.2   3405.8   7.4274 26346.3
 20 10 2016  01 55  -15.5049 26125.3   3407.4   7.4308 26346.6
 20 10 2016  01 56  -15.5055 26125.4   3405.4   7.4265 26346.4
 20 10 2016  01 57  -15.5055 26125.6   3405.7   7.4271 26346.7
 20 10 2016  01 58  -15.5061 26125.5   3405.9   7.4277 26346.6
 20 10 2016  01 59  -15.5056 26126.0   3405.9   7.4275 26347.1
 20 10 2016  02 00  -15.5052 26126.1   3406.6   7.4289 26347.3
 20 10 2016  02 01  -15.5060 26126.4   3404.8   7.4251 26347.3
 20 10 2016  02 02  -15.5065 26126.3   3405.9   7.4273 26347.4
 20 10 2016  02 03  -15.5047 26126.9   3407.6   7.4308 26348.2
 20 10 2016  02 04  -15.5038 26127.4   3406.9   7.4292 26348.6
 20 10 2016  02 05  -15.5046 26127.3   3406.2   7.4278 26348.4
 20 10 2016  02 06  -15.5054 26127.0   3406.9   7.4294 26348.2
 20 10 2016  02 07  -15.5050 26127.3   3406.2   7.4277 26348.4
 20 10 2016  02 08  -15.5051 26127.4   3405.7   7.4265 26348.4
 20 10 2016  02 09  -15.5059 26127.1   3406.0   7.4274 26348.2
 20 10 2016  02 10  -15.5058 26127.1   3405.9   7.4271 26348.2
 20 10 2016  02 11  -15.5060 26126.9   3406.1   7.4275 26348.0
 20 10 2016  02 12  -15.5061 26127.1   3404.9   7.4250 26348.1
 20 10 2016  02 13  -15.5074 26126.9   3404.3   7.4237 26347.7
 20 10 2016  02 14  -15.5068 26127.1   3404.6   7.4243 26347.9
 20 10 2016  02 15  -15.5055 26127.0   3406.9   7.4293 26348.2
 20 10 2016  02 16  -15.5068 26126.9   3405.4   7.4261 26347.9
 20 10 2016  02 17  -15.5062 26127.0   3406.1   7.4277 26348.1
 20 10 2016  02 18  -15.5059 26127.1   3405.5   7.4264 26348.1
 20 10 2016  02 19  -15.5054 26127.5   3405.2   7.4256 26348.4
 20 10 2016  02 20  -15.5060 26127.2   3405.7   7.4266 26348.2
 20 10 2016  02 21  -15.5058 26127.1   3407.1   7.4298 26348.3
 20 10 2016  02 22  -15.5065 26127.0   3406.5   7.4285 26348.1
 20 10 2016  02 23  -15.5051 26127.6   3406.3   7.4279 26348.7
 20 10 2016  02 24  -15.5064 26127.1   3406.1   7.4275 26348.2
 20 10 2016  02 25  -15.5048 26127.7   3406.2   7.4275 26348.8
 20 10 2016  02 26  -15.5043 26127.8   3407.7   7.4308 26349.1
 20 10 2016  02 27  -15.5047 26128.1   3406.3   7.4278 26349.2
 20 10 2016  02 28  -15.5062 26127.8   3405.2   7.4253 26348.8
 20 10 2016  02 29  -15.5057 26128.1   3405.9   7.4268 26349.2
 20 10 2016  02 30  -15.5052 26128.4   3405.6   7.4262 26349.4
 20 10 2016  02 31  -15.5044 26128.3   3406.8   7.4287 26349.4
 20 10 2016  02 32  -15.5060 26127.7   3404.8   7.4246 26348.7
 20 10 2016  02 33  -15.5055 26127.3   3405.7   7.4267 26348.3
 20 10 2016  02 34  -15.5062 26126.4   3406.2   7.4280 26347.5
 20 10 2016  02 35  -15.5063 26126.5   3404.3   7.4239 26347.3
 20 10 2016  02 36  -15.5060 26126.3   3404.5   7.4243 26347.2
 20 10 2016  02 37  -15.5058 26126.1   3406.9   7.4297 26347.3
 20 10 2016  02 38  -15.5071 26126.1   3405.4   7.4264 26347.1
 20 10 2016  02 39  -15.5062 26126.8   3404.9   7.4250 26347.7
 20 10 2016  02 40  -15.5062 26126.7   3406.6   7.4286 26347.9
 20 10 2016  02 41  -15.5080 26126.5   3405.2   7.4258 26347.5
 20 10 2016  02 42  -15.5059 26126.9   3406.7   7.4288 26348.1
 20 10 2016  02 43  -15.5078 26126.8   3404.0   7.4230 26347.6
 20 10 2016  02 44  -15.5078 26126.7   3404.9   7.4251 26347.6
 20 10 2016  02 45  -15.5073 26126.7   3406.3   7.4281 26347.8
 20 10 2016  02 46  -15.5062 26127.4   3405.3   7.4257 26348.4
 20 10 2016  02 47  -15.5062 26127.2   3407.4   7.4303 26348.5
 20 10 2016  02 48  -15.5072 26127.3   3405.7   7.4266 26348.3
 20 10 2016  02 49  -15.5070 26127.3   3406.3   7.4278 26348.4
 20 10 2016  02 50  -15.5090 26126.7   3404.9   7.4250 26347.7
 20 10 2016  02 51  -15.5069 26126.9   3407.5   7.4307 26348.2
 20 10 2016  02 52  -15.5079 26126.6   3407.1   7.4298 26347.8
 20 10 2016  02 53  -15.5075 26126.9   3405.3   7.4258 26347.9
 20 10 2016  02 54  -15.5068 26126.9   3406.2   7.4279 26348.0
 20 10 2016  02 55  -15.5070 26127.0   3405.3   7.4259 26348.0
 20 10 2016  02 56  -15.5073 26126.9   3406.0   7.4274 26348.0
 20 10 2016  02 57  -15.5062 26127.1   3407.4   7.4304 26348.3
 20 10 2016  02 58  -15.5064 26127.3   3406.1   7.4275 26348.4
 20 10 2016  02 59  -15.5061 26127.5   3405.6   7.4264 26348.5
 20 10 2016  03 00  -15.5062 26127.3   3405.8   7.4269 26348.4
 20 10 2016  03 01  -15.5064 26127.2   3405.6   7.4265 26348.2
 20 10 2016  03 02  -15.5058 26127.2   3405.9   7.4271 26348.3
 20 10 2016  03 03  -15.5061 26127.2   3405.2   7.4256 26348.2
 20 10 2016  03 04  -15.5055 26127.3   3405.9   7.4270 26348.3
 20 10 2016  03 05  -15.5058 26127.3   3405.6   7.4265 26348.3
 20 10 2016  03 06  -15.5052 26127.3   3406.7   7.4288 26348.5
 20 10 2016  03 07  -15.5055 26127.4   3405.8   7.4268 26348.4
 20 10 2016  03 08  -15.5055 26127.5   3405.4   7.4259 26348.4
 20 10 2016  03 09  -15.5045 26127.4   3407.6   7.4308 26348.7
 20 10 2016  03 10  -15.5050 26127.2   3407.6   7.4308 26348.4
 20 10 2016  03 11  -15.5047 26127.7   3405.3   7.4257 26348.7
 20 10 2016  03 12  -15.5062 26127.4   3404.6   7.4242 26348.3
 20 10 2016  03 13  -15.5052 26127.5   3405.9   7.4271 26348.6
 20 10 2016  03 14  -15.5053 26127.7   3404.5   7.4240 26348.6
 20 10 2016  03 15  -15.5046 26127.8   3404.9   7.4247 26348.8
 20 10 2016  03 16  -15.5049 26127.7   3404.7   7.4245 26348.6
 20 10 2016  03 17  -15.5044 26127.6   3406.4   7.4280 26348.7
 20 10 2016  03 18  -15.5050 26127.5   3405.4   7.4259 26348.5
 20 10 2016  03 19  -15.5040 26127.7   3406.3   7.4279 26348.9
 20 10 2016  03 20  -15.5041 26128.1   3405.0   7.4250 26349.0
 20 10 2016  03 21  -15.5044 26127.9   3406.0   7.4271 26349.0
 20 10 2016  03 22  -15.5053 26127.8   3406.0   7.4272 26348.9
 20 10 2016  03 23  -15.5053 26127.9   3406.2   7.4275 26349.0
 20 10 2016  03 24  -15.5052 26128.2   3405.5   7.4260 26349.2
 20 10 2016  03 25  -15.5041 26128.3   3407.3   7.4297 26349.5
 20 10 2016  03 26  -15.5053 26128.3   3405.3   7.4255 26349.2
 20 10 2016  03 27  -15.5060 26128.3   3404.0   7.4227 26349.1
 20 10 2016  03 28  -15.5042 26128.6   3405.6   7.4261 26349.6
 20 10 2016  03 29  -15.5047 26128.5   3405.0   7.4249 26349.4
 20 10 2016  03 30  -15.5062 26127.9   3405.0   7.4250 26348.8
 20 10 2016  03 31  -15.5063 26127.8   3404.6   7.4240 26348.7
 20 10 2016  03 32  -15.5045 26128.0   3406.5   7.4283 26349.1
 20 10 2016  03 33  -15.5061 26127.4   3406.2   7.4276 26348.5
 20 10 2016  03 34  -15.5065 26127.6   3404.4   7.4238 26348.4
 20 10 2016  03 35  -15.5054 26127.9   3404.7   7.4244 26348.8
 20 10 2016  03 36  -15.5052 26127.8   3405.8   7.4268 26348.8
 20 10 2016  03 37  -15.5058 26127.8   3404.4   7.4236 26348.7
 20 10 2016  03 38  -15.5041 26128.1   3406.4   7.4279 26349.2
 20 10 2016  03 39  -15.5058 26127.9   3404.5   7.4240 26348.8
 20 10 2016  03 40  -15.5051 26127.8   3407.3   7.4300 26349.0
 20 10 2016  03 41  -15.5041 26128.3   3407.0   7.4291 26349.5
 20 10 2016  03 42  -15.5047 26128.6   3404.8   7.4244 26349.5
 20 10 2016  03 43  -15.5046 26128.7   3404.8   7.4243 26349.6
 20 10 2016  03 44  -15.5056 26128.3   3405.4   7.4257 26349.3
 20 10 2016  03 45  -15.5057 26128.4   3405.5   7.4260 26349.4
 20 10 2016  03 46  -15.5069 26128.2   3405.0   7.4249 26349.2
 20 10 2016  03 47  -15.5066 26128.4   3404.6   7.4241 26349.3
 20 10 2016  03 48  -15.5063 26128.4   3405.0   7.4248 26349.4
 20 10 2016  03 49  -15.5069 26128.6   3403.9   7.4223 26349.3
 20 10 2016  03 50  -15.5080 26128.2   3404.2   7.4232 26349.0
 20 10 2016  03 51  -15.5072 26128.2   3405.7   7.4265 26349.3
 20 10 2016  03 52  -15.5058 26128.7   3405.9   7.4268 26349.8
 20 10 2016  03 53  -15.5061 26129.0   3404.0   7.4225 26349.8
 20 10 2016  03 54  -15.5064 26129.0   3405.0   7.4247 26350.0
 20 10 2016  03 55  -15.5068 26129.2   3404.1   7.4226 26350.0
 20 10 2016  03 56  -15.5080 26128.7   3404.9   7.4244 26349.6
 20 10 2016  03 57  -15.5063 26129.0   3405.9   7.4267 26350.1
 20 10 2016  03 58  -15.5056 26129.5   3405.3   7.4252 26350.4
 20 10 2016  03 59  -15.5070 26129.4   3405.1   7.4247 26350.3
 20 10 2016  04 00  -15.5063 26129.6   3406.4   7.4275 26350.7
 20 10 2016  04 01  -15.5071 26129.7   3406.3   7.4273 26350.8
 20 10 2016  04 02  -15.5057 26130.2   3407.2   7.4290 26351.4
 20 10 2016  04 03  -15.5055 26130.4   3406.8   7.4282 26351.6
 20 10 2016  04 04  -15.5073 26130.4   3403.4   7.4208 26351.1
 20 10 2016  04 05  -15.5076 26130.1   3403.8   7.4218 26350.8
 20 10 2016  04 06  -15.5077 26129.5   3405.6   7.4259 26350.5
 20 10 2016  04 07  -15.5061 26129.6   3406.0   7.4266 26350.7
 20 10 2016  04 08  -15.5073 26129.2   3404.2   7.4228 26350.0
 20 10 2016  04 09  -15.5063 26128.9   3406.0   7.4268 26350.0
 20 10 2016  04 10  -15.5063 26128.8   3405.2   7.4252 26349.8
 20 10 2016  04 11  -15.5073 26128.6   3404.2   7.4231 26349.5
 20 10 2016  04 12  -15.5077 26128.5   3403.9   7.4225 26349.3
 20 10 2016  04 13  -15.5064 26128.7   3405.6   7.4261 26349.7
 20 10 2016  04 14  -15.5074 26128.9   3403.3   7.4211 26349.6
 20 10 2016  04 15  -15.5075 26129.2   3403.8   7.4219 26349.9
 20 10 2016  04 16  -15.5064 26129.7   3404.9   7.4242 26350.6
 20 10 2016  04 17  -15.5069 26129.8   3404.9   7.4242 26350.7
 20 10 2016  04 18  -15.5052 26130.3   3406.5   7.4274 26351.4
 20 10 2016  04 19  -15.5067 26130.0   3406.3   7.4272 26351.1
 20 10 2016  04 20  -15.5080 26130.1   3404.7   7.4237 26350.9
 20 10 2016  04 21  -15.5074 26130.6   3403.4   7.4207 26351.3
 20 10 2016  04 22  -15.5075 26130.5   3404.7   7.4236 26351.4
 20 10 2016  04 23  -15.5064 26130.8   3405.0   7.4241 26351.7
 20 10 2016  04 24  -15.5069 26130.7   3405.0   7.4242 26351.6
 20 10 2016  04 25  -15.5059 26130.9   3405.8   7.4259 26351.9
 20 10 2016  04 26  -15.5069 26130.8   3404.0   7.4221 26351.6
 20 10 2016  04 27  -15.5068 26130.6   3405.0   7.4241 26351.6
 20 10 2016  04 28  -15.5069 26130.8   3404.4   7.4229 26351.6
 20 10 2016  04 29  -15.5056 26131.2   3405.6   7.4252 26352.2
 20 10 2016  04 30  -15.5065 26131.4   3404.2   7.4222 26352.2
 20 10 2016  04 31  -15.5050 26131.6   3406.9   7.4280 26352.7
 20 10 2016  04 32  -15.5072 26131.3   3405.3   7.4246 26352.2
 20 10 2016  04 33  -15.5061 26131.4   3406.5   7.4271 26352.5
 20 10 2016  04 34  -15.5048 26131.8   3406.2   7.4265 26352.8
 20 10 2016  04 35  -15.5055 26131.2   3406.6   7.4274 26352.4
 20 10 2016  04 36  -15.5074 26130.9   3404.2   7.4223 26351.7
 20 10 2016  04 37  -15.5075 26130.7   3404.1   7.4223 26351.5
 20 10 2016  04 38  -15.5073 26130.6   3404.4   7.4228 26351.4
 20 10 2016  04 39  -15.5073 26130.5   3404.6   7.4233 26351.3
 20 10 2016  04 40  -15.5065 26130.5   3405.5   7.4254 26351.5
 20 10 2016  04 41  -15.5075 26130.4   3404.0   7.4221 26351.2
 20 10 2016  04 42  -15.5075 26130.3   3403.6   7.4212 26351.1
 20 10 2016  04 43  -15.5059 26130.6   3404.9   7.4241 26351.5
 20 10 2016  04 44  -15.5068 26130.7   3403.1   7.4201 26351.4
 20 10 2016  04 45  -15.5068 26130.7   3405.5   7.4253 26351.6
 20 10 2016  04 46  -15.5067 26131.2   3404.6   7.4233 26352.0
 20 10 2016  04 47  -15.5065 26131.4   3404.3   7.4224 26352.2
 20 10 2016  04 48  -15.5073 26131.2   3403.1   7.4200 26351.9
 20 10 2016  04 49  -15.5075 26131.0   3403.5   7.4208 26351.7
 20 10 2016  04 50  -15.5059 26131.1   3406.4   7.4270 26352.2
 20 10 2016  04 51  -15.5060 26131.5   3403.7   7.4212 26352.3
 20 10 2016  04 52  -15.5076 26131.0   3403.3   7.4205 26351.7
 20 10 2016  04 53  -15.5054 26131.4   3405.5   7.4250 26352.3
 20 10 2016  04 54  -15.5075 26131.0   3403.5   7.4208 26351.7
 20 10 2016  04 55  -15.5064 26130.8   3405.8   7.4258 26351.8
 20 10 2016  04 56  -15.5052 26131.1   3406.5   7.4273 26352.2
 20 10 2016  04 57  -15.5067 26130.8   3406.0   7.4264 26351.8
 20 10 2016  04 58  -15.5069 26130.8   3406.1   7.4265 26351.8
 20 10 2016  04 59  -15.5069 26131.0   3405.0   7.4240 26351.9
 20 10 2016  05 00  -15.5057 26131.1   3406.8   7.4279 26352.2
 20 10 2016  05 01  -15.5054 26131.4   3406.0   7.4262 26352.4
 20 10 2016  05 02  -15.5066 26131.2   3404.9   7.4239 26352.1
 20 10 2016  05 03  -15.5063 26130.9   3406.9   7.4282 26352.1
 20 10 2016  05 04  -15.5066 26131.1   3405.8   7.4258 26352.1
 20 10 2016  05 05  -15.5062 26131.3   3405.2   7.4245 26352.2
 20 10 2016  05 06  -15.5070 26130.9   3406.1   7.4264 26351.9
 20 10 2016  05 07  -15.5068 26131.2   3404.0   7.4219 26352.0
 20 10 2016  05 08  -15.5066 26131.2   3404.3   7.4225 26352.0
 20 10 2016  05 09  -15.5073 26130.7   3405.9   7.4261 26351.8
 20 10 2016  05 10  -15.5057 26131.2   3406.7   7.4277 26352.3
 20 10 2016  05 11  -15.5071 26131.2   3403.9   7.4216 26352.0
 20 10 2016  05 12  -15.5066 26131.0   3405.7   7.4256 26352.0
 20 10 2016  05 13  -15.5059 26131.4   3404.4   7.4227 26352.2
 20 10 2016  05 14  -15.5068 26131.3   3403.4   7.4205 26352.0
 20 10 2016  05 15  -15.5068 26131.0   3405.6   7.4253 26352.0
 20 10 2016  05 16  -15.5058 26131.1   3407.0   7.4283 26352.2
 20 10 2016  05 17  -15.5051 26131.2   3406.9   7.4281 26352.4
 20 10 2016  05 18  -15.5050 26131.4   3406.2   7.4266 26352.5
 20 10 2016  05 19  -15.5070 26131.1   3404.6   7.4231 26351.9
 20 10 2016  05 20  -15.5048 26131.5   3405.8   7.4258 26352.6
 20 10 2016  05 21  -15.5067 26130.9   3406.2   7.4266 26352.0
 20 10 2016  05 22  -15.5057 26131.5   3404.6   7.4232 26352.4
 20 10 2016  05 23  -15.5061 26131.1   3405.6   7.4254 26352.1
 20 10 2016  05 24  -15.5068 26131.0   3404.8   7.4236 26351.9
 20 10 2016  05 25  -15.5057 26131.1   3406.6   7.4275 26352.2
 20 10 2016  05 26  -15.5070 26131.2   3403.9   7.4218 26351.9
 20 10 2016  05 27  -15.5049 26131.5   3405.8   7.4256 26352.6
 20 10 2016  05 28  -15.5065 26131.2   3405.6   7.4254 26352.2
 20 10 2016  05 29  -15.5058 26131.2   3406.9   7.4282 26352.3
 20 10 2016  05 30  -15.5049 26131.7   3405.2   7.4243 26352.7
 20 10 2016  05 31  -15.5066 26131.3   3404.8   7.4235 26352.2
 20 10 2016  05 32  -15.5066 26131.3   3404.5   7.4230 26352.2
 20 10 2016  05 33  -15.5059 26131.2   3406.8   7.4278 26352.3
 20 10 2016  05 34  -15.5055 26131.5   3405.1   7.4241 26352.4
 20 10 2016  05 35  -15.5064 26131.4   3403.9   7.4216 26352.2
 20 10 2016  05 36  -15.5063 26131.3   3404.4   7.4227 26352.1
 20 10 2016  05 37  -15.5045 26131.6   3406.1   7.4264 26352.7
 20 10 2016  05 38  -15.5045 26131.5   3406.3   7.4268 26352.6
 20 10 2016  05 39  -15.5047 26131.7   3405.5   7.4249 26352.6
 20 10 2016  05 40  -15.5046 26131.6   3405.8   7.4257 26352.6
 20 10 2016  05 41  -15.5048 26131.4   3407.0   7.4283 26352.6
 20 10 2016  05 42  -15.5052 26131.7   3404.8   7.4235 26352.6
 20 10 2016  05 43  -15.5044 26131.8   3406.4   7.4270 26352.9
 20 10 2016  05 44  -15.5046 26131.9   3405.8   7.4255 26352.9
 20 10 2016  05 45  -15.5047 26131.8   3406.7   7.4275 26352.9
 20 10 2016  05 46  -15.5048 26131.9   3405.5   7.4249 26352.9
 20 10 2016  05 47  -15.5044 26132.0   3405.8   7.4255 26353.0
 20 10 2016  05 48  -15.5047 26132.1   3405.0   7.4238 26353.0
 20 10 2016  05 49  -15.5045 26131.8   3406.3   7.4266 26352.9
 20 10 2016  05 50  -15.5037 26131.9   3407.0   7.4283 26353.1
 20 10 2016  05 51  -15.5046 26131.7   3406.5   7.4271 26352.8
 20 10 2016  05 52  -15.5048 26131.7   3405.2   7.4244 26352.6
 20 10 2016  05 53  -15.5056 26131.5   3404.0   7.4217 26352.3
 20 10 2016  05 54  -15.5032 26131.8   3406.1   7.4262 26352.8
 20 10 2016  05 55  -15.5038 26131.2   3407.1   7.4285 26352.4
 20 10 2016  05 56  -15.5040 26131.2   3407.1   7.4286 26352.4
 20 10 2016  05 57  -15.5052 26131.1   3405.9   7.4261 26352.1
 20 10 2016  05 58  -15.5051 26131.4   3404.8   7.4235 26352.3
 20 10 2016  05 59  -15.5038 26131.7   3405.5   7.4250 26352.6
 20 10 2016  06 00  -15.5048 26131.5   3404.6   7.4232 26352.3
 20 10 2016  06 01  -15.5037 26131.7   3404.9   7.4237 26352.6
 20 10 2016  06 02  -15.5045 26131.4   3405.3   7.4246 26352.4
 20 10 2016  06 03  -15.5037 26131.7   3405.0   7.4240 26352.7
 20 10 2016  06 04  -15.5040 26131.5   3405.6   7.4252 26352.5
 20 10 2016  06 05  -15.5042 26131.5   3405.2   7.4245 26352.4
 20 10 2016  06 06  -15.5043 26131.7   3404.0   7.4218 26352.5
 20 10 2016  06 07  -15.5032 26131.6   3406.4   7.4270 26352.7
 20 10 2016  06 08  -15.5030 26131.6   3406.7   7.4275 26352.7
 20 10 2016  06 09  -15.5037 26131.3   3406.6   7.4275 26352.4
 20 10 2016  06 10  -15.5041 26131.4   3404.7   7.4233 26352.3
 20 10 2016  06 11  -15.5034 26131.5   3405.6   7.4254 26352.5
 20 10 2016  06 12  -15.5036 26131.6   3405.1   7.4243 26352.5
 20 10 2016  06 13  -15.5026 26131.6   3406.7   7.4276 26352.7
 20 10 2016  06 14  -15.5024 26131.6   3406.7   7.4276 26352.7
 20 10 2016  06 15  -15.5032 26131.4   3406.6   7.4274 26352.6
 20 10 2016  06 16  -15.5037 26131.4   3406.8   7.4278 26352.5
 20 10 2016  06 17  -15.5038 26131.6   3405.5   7.4250 26352.6
 20 10 2016  06 18  -15.5046 26131.4   3405.1   7.4243 26352.3
 20 10 2016  06 19  -15.5033 26131.9   3404.5   7.4227 26352.7
 20 10 2016  06 20  -15.5036 26131.7   3405.5   7.4249 26352.7
 20 10 2016  06 21  -15.5027 26131.8   3406.7   7.4276 26353.0
 20 10 2016  06 22  -15.5030 26131.9   3405.9   7.4259 26353.0
 20 10 2016  06 23  -15.5040 26132.1   3403.7   7.4210 26352.8
 20 10 2016  06 24  -15.5028 26132.4   3404.5   7.4226 26353.2
 20 10 2016  06 25  -15.5025 26132.2   3406.8   7.4277 26353.3
 20 10 2016  06 26  -15.5036 26131.9   3406.4   7.4268 26353.0
 20 10 2016  06 27  -15.5045 26132.0   3404.5   7.4226 26352.8
 20 10 2016  06 28  -15.5032 26132.3   3405.0   7.4238 26353.2
 20 10 2016  06 29  -15.5037 26132.0   3406.3   7.4265 26353.1
 20 10 2016  06 30  -15.5027 26132.6   3404.9   7.4235 26353.5
 20 10 2016  06 31  -15.5027 26132.6   3405.9   7.4255 26353.6
 20 10 2016  06 32  -15.5043 26132.3   3405.7   7.4252 26353.3
 20 10 2016  06 33  -15.5030 26132.8   3406.2   7.4262 26353.8
 20 10 2016  06 34  -15.5034 26133.1   3404.9   7.4232 26354.0
 20 10 2016  06 35  -15.5030 26133.2   3405.6   7.4247 26354.2
 20 10 2016  06 36  -15.5016 26133.5   3407.0   7.4278 26354.7
 20 10 2016  06 37  -15.5028 26133.3   3406.7   7.4271 26354.4
 20 10 2016  06 38  -15.5038 26133.4   3403.9   7.4211 26354.2
 20 10 2016  06 39  -15.5022 26133.5   3405.7   7.4249 26354.5
 20 10 2016  06 40  -15.5021 26133.6   3405.3   7.4240 26354.5
 20 10 2016  06 41  -15.5032 26133.1   3405.1   7.4237 26354.0
 20 10 2016  06 42  -15.5034 26133.2   3404.3   7.4220 26354.0
 20 10 2016  06 43  -15.5026 26133.3   3404.7   7.4228 26354.1
 20 10 2016  06 44  -15.5021 26133.5   3404.1   7.4215 26354.3
 20 10 2016  06 45  -15.5033 26132.9   3404.6   7.4227 26353.8
 20 10 2016  06 46  -15.5022 26133.0   3405.7   7.4250 26353.9
 20 10 2016  06 47  -15.5029 26133.1   3404.6   7.4226 26353.9
 20 10 2016  06 48  -15.5022 26133.2   3405.4   7.4242 26354.2
 20 10 2016  06 49  -15.5033 26133.1   3404.6   7.4226 26354.0
 20 10 2016  06 50  -15.5036 26133.3   3403.6   7.4203 26354.0
 20 10 2016  06 51  -15.5029 26133.5   3404.8   7.4230 26354.4
 20 10 2016  06 52  -15.5037 26133.3   3404.7   7.4228 26354.1
 20 10 2016  06 53  -15.5031 26133.7   3403.9   7.4210 26354.4
 20 10 2016  06 54  -15.5030 26133.6   3405.2   7.4237 26354.5
 20 10 2016  06 55  -15.5020 26133.8   3406.2   7.4258 26354.8
 20 10 2016  06 56  -15.5032 26133.5   3405.2   7.4238 26354.5
 20 10 2016  06 57  -15.5034 26133.6   3404.7   7.4228 26354.5
 20 10 2016  06 58  -15.5030 26133.8   3404.6   7.4225 26354.6
 20 10 2016  06 59  -15.5026 26133.9   3405.5   7.4244 26354.8
 20 10 2016  07 00  -15.5039 26133.8   3404.1   7.4215 26354.6
 20 10 2016  07 01  -15.5035 26133.6   3406.4   7.4263 26354.7
 20 10 2016  07 02  -15.5036 26133.9   3405.3   7.4239 26354.8
 20 10 2016  07 03  -15.5033 26134.0   3404.7   7.4226 26354.9
 20 10 2016  07 04  -15.5030 26134.0   3405.2   7.4236 26354.9
 20 10 2016  07 05  -15.5032 26134.0   3404.3   7.4218 26354.8
 20 10 2016  07 06  -15.5030 26133.8   3405.0   7.4232 26354.7
 20 10 2016  07 07  -15.5032 26133.9   3404.8   7.4229 26354.7
 20 10 2016  07 08  -15.5030 26133.9   3405.6   7.4246 26354.8
 20 10 2016  07 09  -15.5033 26133.7   3406.4   7.4263 26354.7
 20 10 2016  07 10  -15.5037 26134.1   3403.6   7.4202 26354.8
 20 10 2016  07 11  -15.5030 26134.1   3405.5   7.4242 26355.0
 20 10 2016  07 12  -15.5031 26134.2   3404.7   7.4227 26355.0
 20 10 2016  07 13  -15.5035 26134.0   3405.3   7.4238 26355.0
 20 10 2016  07 14  -15.5025 26134.4   3405.7   7.4247 26355.4
 20 10 2016  07 15  -15.5021 26134.6   3405.6   7.4244 26355.5
 20 10 2016  07 16  -15.5025 26134.5   3405.3   7.4238 26355.4
 20 10 2016  07 17  -15.5028 26134.6   3404.7   7.4225 26355.4
 20 10 2016  07 18  -15.5023 26134.6   3406.0   7.4252 26355.6
 20 10 2016  07 19  -15.5042 26134.5   3403.5   7.4199 26355.1
 20 10 2016  07 20  -15.5035 26134.6   3403.8   7.4205 26355.4
 20 10 2016  07 21  -15.5047 26134.1   3404.4   7.4218 26354.9
 20 10 2016  07 22  -15.5037 26134.1   3406.0   7.4255 26355.1
 20 10 2016  07 23  -15.5038 26134.2   3405.2   7.4235 26355.1
 20 10 2016  07 24  -15.5030 26134.4   3405.5   7.4242 26355.3
 20 10 2016  07 25  -15.5027 26134.4   3405.8   7.4248 26355.3
 20 10 2016  07 26  -15.5033 26134.2   3405.6   7.4245 26355.2
 20 10 2016  07 27  -15.5035 26134.1   3405.8   7.4250 26355.1
 20 10 2016  07 28  -15.5035 26134.3   3404.7   7.4225 26355.2
 20 10 2016  07 29  -15.5030 26134.3   3405.4   7.4241 26355.2
 20 10 2016  07 30  -15.5036 26133.9   3405.4   7.4241 26354.8
 20 10 2016  07 31  -15.5030 26133.9   3405.8   7.4250 26354.9
 20 10 2016  07 32  -15.5042 26133.7   3403.7   7.4205 26354.4
 20 10 2016  07 33  -15.5031 26133.5   3405.9   7.4253 26354.5
 20 10 2016  07 34  -15.5035 26133.5   3405.1   7.4237 26354.4
 20 10 2016  07 35  -15.5032 26133.7   3404.1   7.4214 26354.4
 20 10 2016  07 36  -15.5037 26133.6   3404.1   7.4214 26354.3
 20 10 2016  07 37  -15.5034 26133.6   3404.9   7.4233 26354.5
 20 10 2016  07 38  -15.5031 26133.9   3404.7   7.4226 26354.8
 20 10 2016  07 39  -15.5029 26133.9   3405.4   7.4241 26354.8
 20 10 2016  07 40  -15.5033 26134.0   3405.1   7.4234 26354.9
 20 10 2016  07 41  -15.5036 26134.0   3404.8   7.4229 26354.8
 20 10 2016  07 42  -15.5026 26134.1   3405.4   7.4242 26355.1
 20 10 2016  07 43  -15.5040 26133.7   3404.8   7.4230 26354.6
 20 10 2016  07 44  -15.5029 26133.8   3406.1   7.4256 26354.9
 20 10 2016  07 45  -15.5024 26133.9   3405.7   7.4247 26354.9
 20 10 2016  07 46  -15.5027 26133.8   3405.3   7.4240 26354.7
 20 10 2016  07 47  -15.5027 26133.8   3405.3   7.4240 26354.7
 20 10 2016  07 48  -15.5026 26133.7   3405.6   7.4245 26354.7
 20 10 2016  07 49  -15.5025 26133.8   3405.3   7.4240 26354.7
 20 10 2016  07 50  -15.5025 26133.7   3405.5   7.4243 26354.7
 20 10 2016  07 51  -15.5026 26133.7   3404.7   7.4228 26354.5
 20 10 2016  07 52  -15.5025 26133.4   3405.4   7.4242 26354.3
 20 10 2016  07 53  -15.5022 26133.4   3405.1   7.4237 26354.3
 20 10 2016  07 54  -15.5024 26133.3   3405.1   7.4236 26354.2
 20 10 2016  07 55  -15.5028 26133.1   3404.9   7.4233 26354.0
 20 10 2016  07 56  -15.5033 26133.0   3404.4   7.4223 26353.8
 20 10 2016  07 57  -15.5023 26133.3   3404.8   7.4231 26354.2
 20 10 2016  07 58  -15.5026 26133.3   3405.6   7.4248 26354.3
 20 10 2016  07 59  -15.5026 26133.7   3405.0   7.4233 26354.6
 20 10 2016  08 00  -15.5026 26133.8   3405.4   7.4241 26354.7
 20 10 2016  08 01  -15.5026 26133.9   3405.9   7.4253 26354.9
 20 10 2016  08 02  -15.5025 26134.0   3405.6   7.4246 26355.0
 20 10 2016  08 03  -15.5024 26133.9   3405.8   7.4249 26354.9
 20 10 2016  08 04  -15.5024 26133.8   3405.5   7.4244 26354.7
 20 10 2016  08 05  -15.5024 26133.6   3405.4   7.4243 26354.6
 20 10 2016  08 06  -15.5024 26133.6   3405.4   7.4243 26354.5
 20 10 2016  08 07  -15.5024 26133.5   3405.3   7.4240 26354.4
 20 10 2016  08 08  -15.5021 26133.7   3404.9   7.4231 26354.6
 20 10 2016  08 09  -15.5023 26133.4   3405.2   7.4239 26354.3
 20 10 2016  08 10  -15.5023 26133.3   3405.5   7.4246 26354.2
 20 10 2016  08 11  -15.5022 26133.1   3405.2   7.4240 26354.1
 20 10 2016  08 12  -15.5019 26133.0   3405.6   7.4248 26353.9
 20 10 2016  08 13  -15.5017 26132.8   3405.7   7.4250 26353.8
 20 10 2016  08 14  -15.5018 26132.4   3406.0   7.4258 26353.4
 20 10 2016  08 15  -15.5014 26132.2   3406.3   7.4265 26353.2
 20 10 2016  08 16  -15.5010 26132.0   3406.5   7.4271 26353.1
 20 10 2016  08 17  -15.5016 26131.6   3406.1   7.4263 26352.7
 20 10 2016  08 18  -15.5016 26131.4   3406.0   7.4262 26352.4
 20 10 2016  08 19  -15.5017 26131.4   3405.6   7.4252 26352.3
 20 10 2016  08 20  -15.5000 26131.4   3407.3   7.4290 26352.7
 20 10 2016  08 21  -15.5000 26131.3   3407.4   7.4291 26352.5
 20 10 2016  08 22  -15.4996 26131.7   3405.2   7.4243 26352.7
 20 10 2016  08 23  -15.4996 26131.6   3405.5   7.4250 26352.6
 20 10 2016  08 24  -15.4991 26131.7   3406.3   7.4267 26352.7
 20 10 2016  08 25  -15.4999 26131.6   3406.0   7.4261 26352.6
 20 10 2016  08 26  -15.5016 26131.3   3406.2   7.4266 26352.3
 20 10 2016  08 27  -15.5013 26131.6   3405.9   7.4259 26352.6
 20 10 2016  08 28  -15.5005 26132.1   3406.6   7.4273 26353.2
 20 10 2016  08 29  -15.5003 26132.4   3407.7   7.4295 26353.6
 20 10 2016  08 30  -15.5011 26132.7   3407.2   7.4283 26353.8
 20 10 2016  08 31  -15.5012 26133.1   3407.0   7.4278 26354.3
 20 10 2016  08 32  -15.5022 26133.2   3406.3   7.4263 26354.2
 20 10 2016  08 33  -15.5014 26133.2   3408.1   7.4302 26354.5
 20 10 2016  08 34  -15.5011 26133.5   3406.6   7.4269 26354.6
 20 10 2016  08 35  -15.5013 26133.3   3406.7   7.4271 26354.4
 20 10 2016  08 36  -15.5014 26132.9   3406.8   7.4274 26354.0
 20 10 2016  08 37  -15.5022 26132.8   3405.2   7.4241 26353.7
 20 10 2016  08 38  -15.5022 26132.4   3405.4   7.4246 26353.4
 20 10 2016  08 39  -15.5021 26132.1   3406.0   7.4260 26353.2
 20 10 2016  08 40  -15.5022 26131.9   3406.7   7.4274 26353.0
 20 10 2016  08 41  -15.5015 26132.1   3407.4   7.4289 26353.3
 20 10 2016  08 42  -15.5030 26132.0   3405.6   7.4252 26353.0
 20 10 2016  08 43  -15.5025 26132.1   3406.2   7.4263 26353.1
 20 10 2016  08 44  -15.5023 26132.1   3406.7   7.4276 26353.2
 20 10 2016  08 45  -15.5024 26132.2   3405.8   7.4255 26353.2
 20 10 2016  08 46  -15.5029 26132.0   3406.1   7.4261 26353.1
 20 10 2016  08 47  -15.5029 26131.8   3407.2   7.4287 26353.0
 20 10 2016  08 48  -15.5031 26131.8   3406.7   7.4276 26352.9
 20 10 2016  08 49  -15.5034 26131.6   3406.5   7.4271 26352.7
 20 10 2016  08 50  -15.5027 26131.6   3408.1   7.4305 26352.9
 20 10 2016  08 51  -15.5032 26131.8   3406.0   7.4261 26352.9
 20 10 2016  08 52  -15.5046 26131.5   3406.0   7.4261 26352.6
 20 10 2016  08 53  -15.5041 26131.7   3406.7   7.4276 26352.8
 20 10 2016  08 54  -15.5029 26132.2   3406.8   7.4277 26353.3
 20 10 2016  08 55  -15.5035 26132.2   3406.1   7.4262 26353.3
 20 10 2016  08 56  -15.5033 26132.2   3406.7   7.4273 26353.4
 20 10 2016  08 57  -15.5031 26132.3   3407.0   7.4280 26353.4
 20 10 2016  08 58  -15.5037 26132.1   3407.0   7.4282 26353.3
 20 10 2016  08 59  -15.5041 26132.1   3406.5   7.4270 26353.2
 20 10 2016  09 00  -15.5038 26132.2   3407.0   7.4281 26353.3
 20 10 2016  09 01  -15.5038 26132.0   3407.0   7.4280 26353.2
 20 10 2016  09 02  -15.5039 26131.9   3406.8   7.4278 26353.0
 20 10 2016  09 03  -15.5039 26131.8   3407.1   7.4283 26352.9
 20 10 2016  09 04  -15.5037 26131.9   3407.1   7.4283 26353.1
 20 10 2016  09 05  -15.5040 26131.8   3407.2   7.4287 26353.0
 20 10 2016  09 06  -15.5037 26131.9   3407.2   7.4285 26353.1
 20 10 2016  09 07  -15.5039 26131.7   3407.3   7.4290 26352.9
 20 10 2016  09 08  -15.5043 26131.5   3407.6   7.4295 26352.7
 20 10 2016  09 09  -15.5042 26131.5   3406.8   7.4279 26352.7
 20 10 2016  09 10  -15.5037 26131.4   3408.0   7.4304 26352.7
 20 10 2016  09 11  -15.5039 26131.4   3407.8   7.4300 26352.6
 20 10 2016  09 12  -15.5046 26131.3   3407.6   7.4296 26352.5
 20 10 2016  09 13  -15.5051 26131.3   3406.9   7.4281 26352.5
 20 10 2016  09 14  -15.5044 26131.1   3409.0   7.4327 26352.5
 20 10 2016  09 15  -15.5048 26131.0   3408.7   7.4321 26352.4
 20 10 2016  09 16  -15.5036 26131.5   3408.1   7.4307 26352.8
 20 10 2016  09 17  -15.5038 26131.3   3408.3   7.4310 26352.6
 20 10 2016  09 18  -15.5045 26130.8   3409.5   7.4338 26352.3
 20 10 2016  09 19  -15.5032 26131.1   3410.0   7.4349 26352.6
 20 10 2016  09 20  -15.5032 26131.0   3409.6   7.4341 26352.5
 20 10 2016  09 21  -15.5041 26130.6   3409.5   7.4338 26352.1
 20 10 2016  09 22  -15.5034 26130.5   3411.0   7.4371 26352.2
 20 10 2016  09 23  -15.5035 26130.6   3410.2   7.4354 26352.2
 20 10 2016  09 24  -15.5033 26130.6   3410.8   7.4366 26352.2
 20 10 2016  09 25  -15.5036 26130.3   3411.5   7.4384 26352.1
 20 10 2016  09 26  -15.5045 26130.4   3409.4   7.4338 26351.8
 20 10 2016  09 27  -15.5025 26130.7   3410.1   7.4352 26352.3
 20 10 2016  09 28  -15.5024 26130.3   3412.1   7.4396 26352.2
 20 10 2016  09 29  -15.5023 26130.3   3412.2   7.4398 26352.1
 20 10 2016  09 30  -15.5023 26130.2   3411.2   7.4376 26352.0
 20 10 2016  09 31  -15.5030 26130.1   3410.4   7.4361 26351.7
 20 10 2016  09 32  -15.5035 26129.7   3410.7   7.4368 26351.4
 20 10 2016  09 33  -15.5017 26129.8   3412.7   7.4411 26351.7
 20 10 2016  09 34  -15.5029 26129.6   3411.8   7.4392 26351.4
 20 10 2016  09 35  -15.5032 26129.5   3410.1   7.4355 26351.1
 20 10 2016  09 36  -15.5029 26129.2   3411.2   7.4380 26351.0
 20 10 2016  09 37  -15.5023 26129.4   3410.8   7.4370 26351.1
 20 10 2016  09 38  -15.5024 26128.9   3412.9   7.4417 26350.8
 20 10 2016  09 39  -15.5033 26128.4   3412.0   7.4400 26350.3
 20 10 2016  09 40  -15.5022 26128.6   3412.1   7.4400 26350.5
 20 10 2016  09 41  -15.5024 26128.4   3412.0   7.4399 26350.3
 20 10 2016  09 42  -15.5029 26128.4   3411.2   7.4381 26350.1
 20 10 2016  09 43  -15.5029 26128.4   3411.2   7.4383 26350.1
 20 10 2016  09 44  -15.5028 26128.2   3412.0   7.4399 26350.1
 20 10 2016  09 45  -15.5025 26128.3   3412.0   7.4399 26350.1
 20 10 2016  09 46  -15.5031 26128.2   3411.5   7.4388 26350.0
 20 10 2016  09 47  -15.5032 26128.4   3412.7   7.4414 26350.4
 20 10 2016  09 48  -15.5025 26128.7   3413.4   7.4428 26350.7
 20 10 2016  09 49  -15.5036 26128.7   3412.1   7.4401 26350.6
 20 10 2016  09 50  -15.5023 26128.8   3413.5   7.4431 26350.8
 20 10 2016  09 51  -15.5033 26128.7   3412.6   7.4412 26350.6
 20 10 2016  09 52  -15.5037 26128.3   3413.9   7.4440 26350.4
 20 10 2016  09 53  -15.5034 26128.4   3413.8   7.4438 26350.5
 20 10 2016  09 54  -15.5033 26128.5   3413.6   7.4434 26350.5
 20 10 2016  09 55  -15.5038 26128.2   3413.3   7.4427 26350.2
 20 10 2016  09 56  -15.5049 26127.9   3412.9   7.4420 26349.8
 20 10 2016  09 57  -15.5057 26127.8   3411.8   7.4396 26349.6
 20 10 2016  09 58  -15.5063 26127.7   3411.9   7.4398 26349.5
 20 10 2016  09 59  -15.5058 26127.6   3412.9   7.4420 26349.5
 20 10 2016  10 00  -15.5064 26127.2   3413.4   7.4434 26349.2
 20 10 2016  10 01  -15.5058 26127.5   3412.3   7.4407 26349.3
 20 10 2016  10 02  -15.5059 26127.5   3412.5   7.4412 26349.4
 20 10 2016  10 03  -15.5061 26127.3   3414.1   7.4447 26349.4
 20 10 2016  10 04  -15.5069 26127.3   3414.0   7.4445 26349.4
 20 10 2016  10 05  -15.5070 26127.4   3413.7   7.4439 26349.5
 20 10 2016  10 06  -15.5072 26127.5   3413.6   7.4437 26349.5
 20 10 2016  10 07  -15.5078 26127.2   3414.2   7.4450 26349.4
 20 10 2016  10 08  -15.5085 26127.1   3414.3   7.4453 26349.3
 20 10 2016  10 09  -15.5079 26127.2   3414.7   7.4462 26349.4
 20 10 2016  10 10  -15.5079 26127.3   3414.1   7.4448 26349.4
 20 10 2016  10 11  -15.5083 26127.2   3414.0   7.4445 26349.3
 20 10 2016  10 12  -15.5094 26126.8   3414.6   7.4460 26349.0
 20 10 2016  10 13  -15.5086 26127.2   3414.2   7.4451 26349.3
 20 10 2016  10 14  -15.5098 26126.9   3415.3   7.4475 26349.1
 20 10 2016  10 15  -15.5091 26127.0   3416.3   7.4496 26349.4
 20 10 2016  10 16  -15.5092 26127.4   3415.4   7.4475 26349.7
 20 10 2016  10 17  -15.5097 26127.5   3415.7   7.4481 26349.9
 20 10 2016  10 18  -15.5098 26127.9   3414.6   7.4456 26350.1
 20 10 2016  10 19  -15.5098 26127.7   3416.6   7.4500 26350.2
 20 10 2016  10 20  -15.5101 26127.7   3415.8   7.4483 26350.1
 20 10 2016  10 21  -15.5101 26127.6   3415.9   7.4486 26350.0
 20 10 2016  10 22  -15.5111 26127.3   3415.5   7.4478 26349.6
 20 10 2016  10 23  -15.5109 26127.2   3415.3   7.4474 26349.5
 20 10 2016  10 24  -15.5111 26127.0   3415.5   7.4479 26349.3
 20 10 2016  10 25  -15.5107 26126.6   3417.5   7.4523 26349.2
 20 10 2016  10 26  -15.5108 26126.6   3416.9   7.4510 26349.1
 20 10 2016  10 27  -15.5121 26126.4   3416.7   7.4506 26348.8
 20 10 2016  10 28  -15.5110 26126.8   3417.0   7.4511 26349.3
 20 10 2016  10 29  -15.5115 26126.8   3417.1   7.4514 26349.3
 20 10 2016  10 30  -15.5106 26127.1   3417.6   7.4523 26349.7
 20 10 2016  10 31  -15.5112 26127.0   3417.9   7.4531 26349.6
 20 10 2016  10 32  -15.5111 26127.2   3417.5   7.4521 26349.8
 20 10 2016  10 33  -15.5105 26127.2   3418.6   7.4544 26349.9
 20 10 2016  10 34  -15.5113 26126.9   3419.4   7.4563 26349.7
 20 10 2016  10 35  -15.5115 26127.2   3418.2   7.4537 26349.8
 20 10 2016  10 36  -15.5112 26127.3   3418.9   7.4551 26350.1
 20 10 2016  10 37  -15.5117 26127.3   3419.7   7.4569 26350.1
 20 10 2016  10 38  -15.5116 26127.5   3418.5   7.4543 26350.2
 20 10 2016  10 39  -15.5108 26127.4   3420.2   7.4579 26350.3
 20 10 2016  10 40  -15.5112 26127.3   3418.5   7.4543 26350.0
 20 10 2016  10 41  -15.5111 26127.0   3419.8   7.4572 26349.8
 20 10 2016  10 42  -15.5106 26127.1   3419.4   7.4562 26350.0
 20 10 2016  10 43  -15.5118 26126.9   3419.3   7.4562 26349.7
 20 10 2016  10 44  -15.5109 26127.1   3419.4   7.4562 26349.9
 20 10 2016  10 45  -15.5111 26126.8   3420.5   7.4587 26349.7
 20 10 2016  10 46  -15.5109 26126.9   3420.2   7.4581 26349.8
 20 10 2016  10 47  -15.5115 26126.9   3420.5   7.4587 26349.8
 20 10 2016  10 48  -15.5112 26127.3   3419.8   7.4570 26350.1
 20 10 2016  10 49  -15.5106 26127.4   3420.8   7.4592 26350.4
 20 10 2016  10 50  -15.5102 26127.5   3422.0   7.4617 26350.6
 20 10 2016  10 51  -15.5100 26127.7   3421.6   7.4608 26350.8
 20 10 2016  10 52  -15.5103 26128.0   3420.8   7.4590 26351.0
 20 10 2016  10 53  -15.5100 26128.2   3421.0   7.4594 26351.2
 20 10 2016  10 54  -15.5099 26128.3   3420.7   7.4588 26351.3
 20 10 2016  10 55  -15.5097 26128.5   3421.1   7.4595 26351.5
 20 10 2016  10 56  -15.5087 26128.9   3421.6   7.4604 26352.0
 20 10 2016  10 57  -15.5084 26129.2   3421.4   7.4599 26352.3
 20 10 2016  10 58  -15.5075 26129.7   3422.4   7.4619 26352.8
 20 10 2016  10 59  -15.5072 26130.1   3421.0   7.4588 26353.0
 20 10 2016  11 00  -15.5065 26130.2   3422.1   7.4612 26353.3
 20 10 2016  11 01  -15.5065 26130.2   3421.6   7.4602 26353.2
 20 10 2016  11 02  -15.5068 26129.9   3421.5   7.4601 26353.0
 20 10 2016  11 03  -15.5066 26130.0   3421.2   7.4592 26353.0
 20 10 2016  11 04  -15.5057 26130.1   3422.1   7.4612 26353.2
 20 10 2016  11 05  -15.5062 26130.2   3420.4   7.4576 26353.2
 20 10 2016  11 06  -15.5049 26130.5   3421.4   7.4596 26353.5
 20 10 2016  11 07  -15.5046 26130.6   3421.5   7.4597 26353.7
 20 10 2016  11 08  -15.5046 26130.5   3422.4   7.4618 26353.7
 20 10 2016  11 09  -15.5043 26130.9   3420.9   7.4584 26353.9
 20 10 2016  11 10  -15.5031 26131.1   3422.4   7.4615 26354.3
 20 10 2016  11 11  -15.5031 26131.2   3421.9   7.4604 26354.3
 20 10 2016  11 12  -15.5028 26131.4   3421.5   7.4595 26354.5
 20 10 2016  11 13  -15.5021 26131.9   3420.5   7.4574 26354.8
 20 10 2016  11 14  -15.5021 26131.8   3421.0   7.4585 26354.8
 20 10 2016  11 15  -15.5016 26132.0   3420.9   7.4580 26354.9
 20 10 2016  11 16  -15.5016 26132.2   3419.9   7.4559 26355.1
 20 10 2016  11 17  -15.5016 26132.3   3419.9   7.4558 26355.2
 20 10 2016  11 18  -15.5000 26132.8   3421.0   7.4581 26355.8
 20 10 2016  11 19  -15.4997 26133.1   3420.9   7.4577 26356.1
 20 10 2016  11 20  -15.4990 26133.6   3421.2   7.4583 26356.6
 20 10 2016  11 21  -15.4988 26134.2   3420.5   7.4566 26357.1
 20 10 2016  11 22  -15.4986 26134.6   3420.9   7.4573 26357.5
 20 10 2016  11 23  -15.4984 26135.0   3420.4   7.4561 26357.8
 20 10 2016  11 24  -15.4982 26135.3   3417.9   7.4507 26357.9
 20 10 2016  11 25  -15.4972 26135.2   3419.3   7.4538 26358.0
 20 10 2016  11 26  -15.4977 26135.1   3418.1   7.4513 26357.7
 20 10 2016  11 27  -15.4968 26135.1   3418.1   7.4511 26357.6
 20 10 2016  11 28  -15.4957 26135.3   3418.3   7.4516 26357.9
 20 10 2016  11 29  -15.4959 26135.5   3417.0   7.4486 26358.0
 20 10 2016  11 30  -15.4955 26135.5   3418.3   7.4516 26358.1
 20 10 2016  11 31  -15.4953 26135.6   3418.1   7.4511 26358.2
 20 10 2016  11 32  -15.4936 26136.3   3417.6   7.4498 26358.8
 20 10 2016  11 33  -15.4930 26136.8   3417.7   7.4498 26359.3
 20 10 2016  11 34  -15.4924 26137.4   3416.9   7.4479 26359.8
 20 10 2016  11 35  -15.4919 26137.5   3417.5   7.4493 26360.0
 20 10 2016  11 36  -15.4915 26138.0   3416.9   7.4478 26360.4
 20 10 2016  11 37  -15.4909 26138.4   3416.7   7.4471 26360.7
 20 10 2016  11 38  -15.4911 26138.7   3415.0   7.4435 26360.8
 20 10 2016  11 39  -15.4907 26138.7   3416.2   7.4461 26361.0
 20 10 2016  11 40  -15.4901 26139.0   3415.9   7.4454 26361.3
 20 10 2016  11 41  -15.4897 26139.1   3416.0   7.4454 26361.4
 20 10 2016  11 42  -15.4886 26139.8   3415.2   7.4435 26362.0
 20 10 2016  11 43  -15.4879 26140.4   3415.4   7.4438 26362.6
 20 10 2016  11 44  -15.4879 26140.8   3414.3   7.4413 26362.8
 20 10 2016  11 45  -15.4871 26141.2   3414.3   7.4412 26363.2
 20 10 2016  11 46  -15.4860 26141.7   3414.5   7.4416 26363.8
 20 10 2016  11 47  -15.4865 26142.0   3412.9   7.4380 26363.8
 20 10 2016  11 48  -15.4852 26142.3   3413.0   7.4382 26364.2
 20 10 2016  11 49  -15.4861 26142.2   3412.1   7.4362 26363.9
 20 10 2016  11 50  -15.4854 26142.6   3411.4   7.4347 26364.2
 20 10 2016  11 51  -15.4842 26143.0   3411.8   7.4354 26364.7
 20 10 2016  11 52  -15.4831 26143.7   3411.1   7.4336 26365.3
 20 10 2016  11 53  -15.4832 26143.8   3411.6   7.4347 26365.5
 20 10 2016  11 54  -15.4828 26144.1   3410.3   7.4319 26365.6
 20 10 2016  11 55  -15.4821 26144.4   3409.9   7.4310 26365.8
 20 10 2016  11 56  -15.4823 26144.4   3409.7   7.4306 26365.8
 20 10 2016  11 57  -15.4811 26144.9   3409.2   7.4293 26366.3
 20 10 2016  11 58  -15.4813 26145.3   3408.1   7.4268 26366.5
 20 10 2016  11 59  -15.4809 26145.8   3407.3   7.4248 26366.9
 20 10 2016  12 00  -15.4813 26145.8   3408.0   7.4264 26367.0
 20 10 2016  12 01  -15.4810 26146.5   3406.2   7.4224 26367.4
 20 10 2016  12 02  -15.4800 26146.7   3407.7   7.4255 26367.8
 20 10 2016  12 03  -15.4802 26147.0   3406.2   7.4222 26367.9
 20 10 2016  12 04  -15.4800 26147.2   3405.1   7.4198 26368.0
 20 10 2016  12 05  -15.4795 26147.3   3404.6   7.4187 26368.1
 20 10 2016  12 06  -15.4787 26147.5   3404.9   7.4192 26368.2
 20 10 2016  12 07  -15.4783 26147.7   3404.6   7.4186 26368.4
 20 10 2016  12 08  -15.4788 26147.9   3403.3   7.4157 26368.5
 20 10 2016  12 09  -15.4787 26148.2   3403.5   7.4160 26368.8
 20 10 2016  12 10  -15.4782 26148.9   3403.1   7.4149 26369.4
 20 10 2016  12 11  -15.4776 26149.6   3401.4   7.4110 26369.9
 20 10 2016  12 12  -15.4759 26150.3   3402.4   7.4132 26370.7
 20 10 2016  12 13  -15.4763 26150.7   3401.8   7.4117 26371.0
 20 10 2016  12 14  -15.4760 26151.3   3400.5   7.4087 26371.4
 20 10 2016  12 15  -15.4758 26151.5   3399.4   7.4062 26371.6
 20 10 2016  12 16  -15.4758 26151.6   3398.4   7.4042 26371.5
 20 10 2016  12 17  -15.4764 26151.3   3398.1   7.4035 26371.2
 20 10 2016  12 18  -15.4764 26151.5   3396.6   7.4002 26371.1
 20 10 2016  12 19  -15.4767 26151.4   3396.3   7.3995 26371.0
 20 10 2016  12 20  -15.4763 26151.5   3395.9   7.3987 26371.1
 20 10 2016  12 21  -15.4762 26152.0   3395.8   7.3984 26371.5
 20 10 2016  12 22  -15.4753 26152.7   3395.9   7.3984 26372.3
 20 10 2016  12 23  -15.4760 26152.8   3395.1   7.3966 26372.2
 20 10 2016  12 24  -15.4759 26152.8   3394.8   7.3959 26372.2
 20 10 2016  12 25  -15.4755 26153.2   3394.1   7.3944 26372.6
 20 10 2016  12 26  -15.4751 26153.9   3393.2   7.3923 26373.1
 20 10 2016  12 27  -15.4750 26154.3   3393.6   7.3930 26373.6
 20 10 2016  12 28  -15.4744 26154.8   3392.9   7.3913 26374.0
 20 10 2016  12 29  -15.4759 26154.7   3391.1   7.3875 26373.6
 20 10 2016  12 30  -15.4754 26154.6   3391.0   7.3874 26373.6
 20 10 2016  12 31  -15.4750 26154.8   3390.8   7.3868 26373.7
 20 10 2016  12 32  -15.4757 26155.0   3389.2   7.3833 26373.7
 20 10 2016  12 33  -15.4745 26155.4   3390.9   7.3868 26374.3
 20 10 2016  12 34  -15.4749 26155.8   3389.7   7.3841 26374.6
 20 10 2016  12 35  -15.4747 26156.3   3389.1   7.3828 26374.9
 20 10 2016  12 36  -15.4748 26156.5   3388.5   7.3815 26375.1
 20 10 2016  12 37  -15.4745 26157.1   3387.1   7.3783 26375.5
 20 10 2016  12 38  -15.4745 26157.1   3387.9   7.3801 26375.6
 20 10 2016  12 39  -15.4748 26157.2   3388.1   7.3804 26375.8
 20 10 2016  12 40  -15.4752 26157.7   3386.6   7.3769 26376.0
 20 10 2016  12 41  -15.4743 26158.2   3386.7   7.3770 26376.6
 20 10 2016  12 42  -15.4745 26158.7   3385.2   7.3736 26376.8
 20 10 2016  12 43  -15.4741 26159.3   3385.4   7.3739 26377.4
 20 10 2016  12 44  -15.4741 26160.0   3385.0   7.3729 26378.1
 20 10 2016  12 45  -15.4745 26160.5   3384.1   7.3709 26378.5
 20 10 2016  12 46  -15.4741 26160.7   3384.4   7.3714 26378.8
 20 10 2016  12 47  -15.4744 26161.3   3382.5   7.3672 26379.0
 20 10 2016  12 48  -15.4737 26162.3   3381.8   7.3654 26380.0
 20 10 2016  12 49  -15.4742 26162.8   3381.4   7.3644 26380.4
 20 10 2016  12 50  -15.4727 26163.8   3382.2   7.3658 26381.6
 20 10 2016  12 51  -15.4731 26164.4   3381.0   7.3631 26382.0
 20 10 2016  12 52  -15.4724 26165.0   3381.2   7.3632 26382.5
 20 10 2016  12 53  -15.4719 26165.3   3379.8   7.3602 26382.7
 20 10 2016  12 54  -15.4721 26165.8   3378.2   7.3567 26383.0
 20 10 2016  12 55  -15.4723 26166.5   3379.0   7.3580 26383.8
 20 10 2016  12 56  -15.4728 26166.9   3377.9   7.3557 26384.1
 20 10 2016  12 57  -15.4732 26167.2   3377.8   7.3553 26384.3
 20 10 2016  12 58  -15.4738 26167.3   3376.2   7.3520 26384.2
 20 10 2016  12 59  -15.4737 26167.5   3375.4   7.3502 26384.3
 20 10 2016  13 00  -15.4743 26167.0   3374.6   7.3486 26383.7
 20 10 2016  13 01  -15.4742 26167.2   3374.6   7.3485 26383.9
 20 10 2016  13 02  -15.4741 26167.2   3374.6   7.3485 26383.9
 20 10 2016  13 03  -15.4741 26167.4   3374.0   7.3472 26384.0
 20 10 2016  13 04  -15.4748 26167.3   3373.3   7.3456 26383.8
 20 10 2016  13 05  -15.4740 26167.6   3373.2   7.3453 26384.1
 20 10 2016  13 06  -15.4738 26168.0   3373.5   7.3458 26384.5
 20 10 2016  13 07  -15.4745 26168.3   3372.1   7.3427 26384.7
 20 10 2016  13 08  -15.4737 26168.9   3371.9   7.3421 26385.3
 20 10 2016  13 09  -15.4738 26169.2   3372.0   7.3423 26385.6
 20 10 2016  13 10  -15.4732 26169.8   3372.1   7.3423 26386.2
 20 10 2016  13 11  -15.4734 26169.9   3371.2   7.3405 26386.1
 20 10 2016  13 12  -15.4733 26170.0   3371.0   7.3400 26386.2
 20 10 2016  13 13  -15.4735 26170.0   3370.3   7.3383 26386.2
 20 10 2016  13 14  -15.4736 26170.0   3369.5   7.3366 26386.0
 20 10 2016  13 15  -15.4735 26170.0   3368.9   7.3354 26386.0
 20 10 2016  13 16  -15.4726 26170.0   3370.4   7.3386 26386.1
 20 10 2016  13 17  -15.4740 26170.1   3369.1   7.3359 26386.1
 20 10 2016  13 18  -15.4730 26170.6   3369.4   7.3363 26386.6
 20 10 2016  13 19  -15.4730 26171.3   3368.9   7.3351 26387.3
 20 10 2016  13 20  -15.4722 26172.6   3369.2   7.3353 26388.5
 20 10 2016  13 21  -15.4719 26173.4   3368.1   7.3327 26389.2
 20 10 2016  13 22  -15.4723 26173.8   3367.1   7.3306 26389.5
 20 10 2016  13 23  -15.4733 26174.3   3365.5   7.3269 26389.8
 20 10 2016  13 24  -15.4735 26174.0   3365.1   7.3262 26389.5
 20 10 2016  13 25  -15.4726 26174.2   3365.9   7.3277 26389.7
 20 10 2016  13 26  -15.4725 26174.7   3366.5   7.3290 26390.3
 20 10 2016  13 27  -15.4728 26175.6   3364.8   7.3250 26390.9
 20 10 2016  13 28  -15.4733 26175.9   3364.0   7.3233 26391.1
 20 10 2016  13 29  -15.4722 26176.1   3364.2   7.3237 26391.4
 20 10 2016  13 30  -15.4724 26176.2   3364.0   7.3232 26391.5
 20 10 2016  13 31  -15.4724 26176.8   3363.9   7.3227 26392.0
 20 10 2016  13 32  -15.4723 26177.4   3363.2   7.3211 26392.5
 20 10 2016  13 33  -15.4734 26177.4   3361.0   7.3163 26392.3
 20 10 2016  13 34  -15.4729 26177.3   3361.6   7.3177 26392.3
 20 10 2016  13 35  -15.4729 26177.3   3361.5   7.3175 26392.3
 20 10 2016  13 36  -15.4729 26177.5   3360.0   7.3141 26392.3
 20 10 2016  13 37  -15.4731 26177.5   3361.0   7.3164 26392.4
 20 10 2016  13 38  -15.4737 26178.1   3359.6   7.3130 26392.8
 20 10 2016  13 39  -15.4738 26178.4   3359.5   7.3129 26393.1
 20 10 2016  13 40  -15.4745 26178.6   3359.7   7.3133 26393.3
 20 10 2016  13 41  -15.4745 26179.2   3358.6   7.3106 26393.8
 20 10 2016  13 42  -15.4738 26180.2   3358.6   7.3103 26394.7
 20 10 2016  13 43  -15.4750 26180.6   3358.5   7.3102 26395.1
 20 10 2016  13 44  -15.4748 26181.0   3358.9   7.3108 26395.6
 20 10 2016  13 45  -15.4755 26181.4   3357.7   7.3082 26395.8
 20 10 2016  13 46  -15.4754 26182.2   3356.1   7.3045 26396.4
 20 10 2016  13 47  -15.4756 26182.4   3356.3   7.3048 26396.7
 20 10 2016  13 48  -15.4760 26182.4   3355.8   7.3037 26396.6
 20 10 2016  13 49  -15.4769 26182.5   3355.4   7.3029 26396.6
 20 10 2016  13 50  -15.4769 26182.9   3355.9   7.3038 26397.0
 20 10 2016  13 51  -15.4782 26183.1   3355.4   7.3026 26397.2
 20 10 2016  13 52  -15.4778 26183.7   3354.3   7.3001 26397.7
 20 10 2016  13 53  -15.4780 26184.2   3355.5   7.3026 26398.4
 20 10 2016  13 54  -15.4788 26184.7   3353.8   7.2988 26398.6
 20 10 2016  13 55  -15.4794 26184.9   3354.9   7.3010 26399.0
 20 10 2016  13 56  -15.4804 26184.9   3352.4   7.2958 26398.6
 20 10 2016  13 57  -15.4799 26184.7   3353.3   7.2977 26398.5
 20 10 2016  13 58  -15.4810 26184.6   3353.1   7.2974 26398.4
 20 10 2016  13 59  -15.4805 26185.0   3352.5   7.2960 26398.8
 20 10 2016  14 00  -15.4813 26185.0   3351.5   7.2938 26398.6
 20 10 2016  14 01  -15.4805 26185.3   3352.3   7.2955 26399.0
 20 10 2016  14 02  -15.4810 26185.4   3353.4   7.2977 26399.2
 20 10 2016  14 03  -15.4824 26185.0   3351.9   7.2947 26398.6
 20 10 2016  14 04  -15.4820 26184.4   3350.0   7.2907 26397.8
 20 10 2016  14 05  -15.4820 26183.6   3349.9   7.2907 26397.0
 20 10 2016  14 06  -15.4817 26183.6   3351.4   7.2940 26397.2
 20 10 2016  14 07  -15.4830 26183.2   3349.9   7.2908 26396.6
 20 10 2016  14 08  -15.4826 26184.7   3352.9   7.2969 26398.5
 20 10 2016  14 09  -15.4821 26185.9   3353.1   7.2971 26399.7
 20 10 2016  14 10  -15.4822 26187.9   3353.8   7.2979 26401.8
 20 10 2016  14 11  -15.4832 26189.2   3353.5   7.2969 26403.0
 20 10 2016  14 12  -15.4832 26191.2   3352.4   7.2940 26404.9
 20 10 2016  14 13  -15.4837 26192.4   3351.9   7.2926 26406.0
 20 10 2016  14 14  -15.4839 26192.7   3351.1   7.2909 26406.2
 20 10 2016  14 15  -15.4833 26192.8   3351.4   7.2915 26406.3
 20 10 2016  14 16  -15.4830 26192.2   3350.5   7.2897 26405.6
 20 10 2016  14 17  -15.4835 26191.7   3350.2   7.2892 26405.1
 20 10 2016  14 18  -15.4827 26191.8   3351.1   7.2912 26405.3
 20 10 2016  14 19  -15.4828 26192.3   3351.4   7.2916 26405.8
 20 10 2016  14 20  -15.4835 26192.4   3350.8   7.2902 26405.9
 20 10 2016  14 21  -15.4846 26192.5   3350.3   7.2892 26405.9
 20 10 2016  14 22  -15.4846 26192.7   3349.7   7.2879 26406.0
 20 10 2016  14 23  -15.4852 26192.6   3349.7   7.2878 26405.9
 20 10 2016  14 24  -15.4851 26192.4   3350.2   7.2889 26405.7
 20 10 2016  14 25  -15.4852 26192.7   3350.1   7.2886 26406.0
 20 10 2016  14 26  -15.4854 26193.1   3350.6   7.2896 26406.5
 20 10 2016  14 27  -15.4848 26193.5   3351.1   7.2907 26407.0
 20 10 2016  14 28  -15.4844 26193.6   3351.8   7.2921 26407.2
 20 10 2016  14 29  -15.4854 26193.6   3351.1   7.2907 26407.1
 20 10 2016  14 30  -15.4855 26193.9   3351.4   7.2911 26407.4
 20 10 2016  14 31  -15.4847 26194.1   3350.8   7.2899 26407.5
 20 10 2016  14 32  -15.4857 26193.8   3350.3   7.2888 26407.2
 20 10 2016  14 33  -15.4849 26194.3   3350.4   7.2889 26407.7
 20 10 2016  14 34  -15.4844 26193.9   3351.7   7.2918 26407.5
 20 10 2016  14 35  -15.4848 26194.2   3350.5   7.2890 26407.6
 20 10 2016  14 36  -15.4849 26194.8   3350.0   7.2879 26408.2
 20 10 2016  14 37  -15.4839 26195.4   3349.8   7.2874 26408.7
 20 10 2016  14 38  -15.4841 26195.2   3349.4   7.2865 26408.5
 20 10 2016  14 39  -15.4834 26195.6   3349.6   7.2868 26408.9
 20 10 2016  14 40  -15.4839 26195.7   3349.2   7.2859 26409.0
 20 10 2016  14 41  -15.4831 26195.7   3350.2   7.2880 26409.0
 20 10 2016  14 42  -15.4827 26196.0   3351.4   7.2906 26409.5
 20 10 2016  14 43  -15.4834 26196.2   3349.1   7.2855 26409.4
 20 10 2016  14 44  -15.4832 26196.5   3349.9   7.2873 26409.8
 20 10 2016  14 45  -15.4834 26196.4   3349.6   7.2866 26409.6
 20 10 2016  14 46  -15.4832 26196.6   3350.2   7.2879 26410.0
 20 10 2016  14 47  -15.4823 26196.9   3349.6   7.2865 26410.2
 20 10 2016  14 48  -15.4827 26196.8   3348.4   7.2839 26410.0
 20 10 2016  14 49  -15.4833 26196.6   3348.7   7.2845 26409.8
 20 10 2016  14 50  -15.4831 26196.7   3350.2   7.2878 26410.1
 20 10 2016  14 51  -15.4835 26197.1   3349.0   7.2850 26410.3
 20 10 2016  14 52  -15.4826 26197.2   3349.2   7.2854 26410.5
 20 10 2016  14 53  -15.4837 26197.0   3348.4   7.2837 26410.2
 20 10 2016  14 54  -15.4826 26197.1   3348.1   7.2832 26410.2
 20 10 2016  14 55  -15.4825 26196.6   3348.6   7.2844 26409.7
 20 10 2016  14 56  -15.4834 26196.7   3349.1   7.2855 26409.9
 20 10 2016  14 57  -15.4827 26197.1   3349.2   7.2855 26410.3
 20 10 2016  14 58  -15.4825 26197.4   3348.1   7.2831 26410.5
 20 10 2016  14 59  -15.4818 26197.7   3348.6   7.2841 26410.8
 20 10 2016  15 00  -15.4822 26197.5   3348.1   7.2830 26410.6
 20 10 2016  15 01  -15.4822 26197.6   3347.9   7.2826 26410.6
 20 10 2016  15 02  -15.4818 26198.5   3348.4   7.2834 26411.6
 20 10 2016  15 03  -15.4819 26198.1   3346.5   7.2794 26410.9
 20 10 2016  15 04  -15.4818 26197.5   3346.0   7.2786 26410.4
 20 10 2016  15 05  -15.4805 26197.5   3347.2   7.2811 26410.4
 20 10 2016  15 06  -15.4815 26197.4   3346.7   7.2801 26410.3
 20 10 2016  15 07  -15.4818 26197.1   3346.8   7.2805 26410.0
 20 10 2016  15 08  -15.4807 26197.2   3347.5   7.2819 26410.3
 20 10 2016  15 09  -15.4806 26197.3   3347.3   7.2814 26410.3
 20 10 2016  15 10  -15.4807 26197.5   3347.5   7.2817 26410.5
 20 10 2016  15 11  -15.4802 26197.7   3347.0   7.2805 26410.7
 20 10 2016  15 12  -15.4802 26197.6   3346.8   7.2802 26410.5
 20 10 2016  15 13  -15.4805 26197.4   3345.7   7.2780 26410.2
 20 10 2016  15 14  -15.4801 26197.3   3346.0   7.2786 26410.1
 20 10 2016  15 15  -15.4804 26197.2   3346.2   7.2790 26410.0
 20 10 2016  15 16  -15.4789 26197.3   3347.1   7.2810 26410.3
 20 10 2016  15 17  -15.4805 26197.0   3346.2   7.2792 26409.9
 20 10 2016  15 18  -15.4805 26197.1   3345.2   7.2769 26409.8
 20 10 2016  15 19  -15.4805 26197.0   3345.7   7.2780 26409.8
 20 10 2016  15 20  -15.4799 26197.0   3346.6   7.2801 26409.9
 20 10 2016  15 21  -15.4801 26197.0   3346.1   7.2790 26409.8
 20 10 2016  15 22  -15.4800 26196.8   3345.1   7.2768 26409.5
 20 10 2016  15 23  -15.4802 26196.4   3345.8   7.2783 26409.2
 20 10 2016  15 24  -15.4805 26196.4   3344.7   7.2761 26409.0
 20 10 2016  15 25  -15.4796 26196.1   3346.9   7.2809 26409.0
 20 10 2016  15 26  -15.4803 26195.8   3346.0   7.2790 26408.6
 20 10 2016  15 27  -15.4800 26195.6   3346.4   7.2798 26408.4
 20 10 2016  15 28  -15.4797 26195.6   3346.7   7.2805 26408.5
 20 10 2016  15 29  -15.4798 26195.3   3347.2   7.2817 26408.2
 20 10 2016  15 30  -15.4807 26195.0   3346.7   7.2808 26407.9
 20 10 2016  15 31  -15.4794 26195.3   3347.7   7.2829 26408.3
 20 10 2016  15 32  -15.4808 26195.1   3346.8   7.2809 26408.0
 20 10 2016  15 33  -15.4800 26195.3   3346.9   7.2810 26408.3
 20 10 2016  15 34  -15.4798 26195.3   3347.2   7.2817 26408.3
 20 10 2016  15 35  -15.4801 26195.2   3347.9   7.2833 26408.3
 20 10 2016  15 36  -15.4805 26195.3   3347.2   7.2816 26408.3
 20 10 2016  15 37  -15.4789 26195.6   3347.4   7.2821 26408.7
 20 10 2016  15 38  -15.4789 26195.4   3347.7   7.2829 26408.4
 20 10 2016  15 39  -15.4795 26195.0   3347.9   7.2833 26408.0
 20 10 2016  15 40  -15.4800 26194.8   3347.8   7.2831 26407.9
 20 10 2016  15 41  -15.4796 26195.0   3347.7   7.2830 26408.0
 20 10 2016  15 42  -15.4793 26194.8   3347.7   7.2828 26407.9
 20 10 2016  15 43  -15.4787 26194.5   3349.3   7.2864 26407.8
 20 10 2016  15 44  -15.4795 26194.2   3348.5   7.2849 26407.4
 20 10 2016  15 45  -15.4802 26194.0   3348.5   7.2849 26407.2
 20 10 2016  15 46  -15.4794 26194.4   3347.6   7.2829 26407.4
 20 10 2016  15 47  -15.4799 26193.8   3348.4   7.2848 26407.0
 20 10 2016  15 48  -15.4787 26193.8   3349.6   7.2872 26407.1
 20 10 2016  15 49  -15.4793 26193.5   3348.9   7.2858 26406.7
 20 10 2016  15 50  -15.4780 26193.8   3348.8   7.2856 26407.0
 20 10 2016  15 51  -15.4785 26193.4   3348.4   7.2847 26406.5
 20 10 2016  15 52  -15.4783 26192.9   3349.2   7.2866 26406.2
 20 10 2016  15 53  -15.4775 26192.6   3349.4   7.2872 26405.9
 20 10 2016  15 54  -15.4769 26193.0   3348.0   7.2842 26406.1
 20 10 2016  15 55  -15.4763 26193.0   3348.2   7.2846 26406.2
 20 10 2016  15 56  -15.4765 26193.0   3348.9   7.2859 26406.2
 20 10 2016  15 57  -15.4762 26192.7   3348.1   7.2844 26405.8
 20 10 2016  15 58  -15.4758 26192.5   3348.3   7.2848 26405.6
 20 10 2016  15 59  -15.4765 26192.2   3346.3   7.2807 26405.1
 20 10 2016  16 00  -15.4757 26192.0   3347.4   7.2832 26405.0
 20 10 2016  16 01  -15.4744 26192.4   3348.1   7.2844 26405.6
 20 10 2016  16 02  -15.4748 26191.9   3347.6   7.2835 26404.9
 20 10 2016  16 03  -15.4747 26190.7   3346.9   7.2824 26403.7
 20 10 2016  16 04  -15.4755 26190.8   3346.5   7.2814 26403.7
 20 10 2016  16 05  -15.4747 26190.9   3348.1   7.2849 26404.1
 20 10 2016  16 06  -15.4744 26191.3   3347.0   7.2824 26404.3
 20 10 2016  16 07  -15.4747 26191.0   3345.8   7.2800 26403.8
 20 10 2016  16 08  -15.4744 26190.9   3345.8   7.2799 26403.8
 20 10 2016  16 09  -15.4744 26190.9   3345.1   7.2784 26403.7
 20 10 2016  16 10  -15.4744 26190.6   3345.5   7.2794 26403.4
 20 10 2016  16 11  -15.4744 26189.9   3345.5   7.2796 26402.7
 20 10 2016  16 12  -15.4743 26189.4   3344.8   7.2782 26402.2
 20 10 2016  16 13  -15.4734 26189.1   3345.6   7.2800 26401.9
 20 10 2016  16 14  -15.4726 26188.9   3344.9   7.2786 26401.7
 20 10 2016  16 15  -15.4732 26188.4   3344.5   7.2777 26401.1
 20 10 2016  16 16  -15.4714 26188.3   3344.6   7.2780 26401.0
 20 10 2016  16 17  -15.4728 26187.4   3343.4   7.2756 26400.0
 20 10 2016  16 18  -15.4724 26186.9   3342.6   7.2742 26399.3
 20 10 2016  16 19  -15.4714 26186.5   3343.3   7.2757 26399.0
 20 10 2016  16 20  -15.4716 26186.4   3342.8   7.2747 26398.9
 20 10 2016  16 21  -15.4714 26186.0   3343.0   7.2752 26398.5
 20 10 2016  16 22  -15.4694 26186.0   3344.4   7.2782 26398.7
 20 10 2016  16 23  -15.4695 26186.0   3343.9   7.2771 26398.6
 20 10 2016  16 24  -15.4690 26186.2   3342.2   7.2734 26398.6
 20 10 2016  16 25  -15.4691 26185.9   3343.1   7.2755 26398.5
 20 10 2016  16 26  -15.4690 26185.7   3343.1   7.2755 26398.2
 20 10 2016  16 27  -15.4692 26185.2   3341.8   7.2729 26397.6
 20 10 2016  16 28  -15.4697 26184.7   3341.4   7.2723 26397.0
 20 10 2016  16 29  -15.4699 26184.8   3338.8   7.2666 26396.8
 20 10 2016  16 30  -15.4698 26184.7   3339.1   7.2672 26396.7
 20 10 2016  16 31  -15.4705 26184.3   3338.6   7.2662 26396.3
 20 10 2016  16 32  -15.4702 26184.3   3338.6   7.2663 26396.3
 20 10 2016  16 33  -15.4705 26183.2   3339.6   7.2687 26395.3
 20 10 2016  16 34  -15.4706 26182.6   3337.4   7.2641 26394.4
 20 10 2016  16 35  -15.4711 26182.0   3336.6   7.2625 26393.7
 20 10 2016  16 36  -15.4710 26181.4   3337.3   7.2641 26393.3
 20 10 2016  16 37  -15.4712 26181.0   3337.2   7.2642 26392.9
 20 10 2016  16 38  -15.4710 26180.8   3337.1   7.2640 26392.6
 20 10 2016  16 39  -15.4706 26180.3   3337.3   7.2644 26392.2
 20 10 2016  16 40  -15.4717 26179.9   3335.7   7.2612 26391.5
 20 10 2016  16 41  -15.4706 26179.8   3336.8   7.2636 26391.6
 20 10 2016  16 42  -15.4731 26179.1   3336.0   7.2620 26390.8
 20 10 2016  16 43  -15.4724 26179.1   3336.1   7.2623 26390.8
 20 10 2016  16 44  -15.4724 26178.9   3337.0   7.2642 26390.7
 20 10 2016  16 45  -15.4730 26178.6   3334.7   7.2595 26390.1
 20 10 2016  16 46  -15.4728 26177.8   3335.6   7.2616 26389.4
 20 10 2016  16 47  -15.4732 26177.1   3336.1   7.2627 26388.8
 20 10 2016  16 48  -15.4738 26176.7   3335.9   7.2625 26388.4
 20 10 2016  16 49  -15.4749 26176.1   3334.6   7.2599 26387.6
 20 10 2016  16 50  -15.4747 26175.9   3334.2   7.2591 26387.4
 20 10 2016  16 51  -15.4745 26175.3   3336.0   7.2632 26387.0
 20 10 2016  16 52  -15.4747 26175.1   3334.8   7.2605 26386.7
 20 10 2016  16 53  -15.4751 26174.5   3335.8   7.2630 26386.2
 20 10 2016  16 54  -15.4766 26173.5   3336.3   7.2643 26385.3
 20 10 2016  16 55  -15.4758 26173.8   3336.8   7.2653 26385.6
 20 10 2016  16 56  -15.4767 26173.8   3335.5   7.2625 26385.5
 20 10 2016  16 57  -15.4769 26173.2   3336.7   7.2653 26385.1
 20 10 2016  16 58  -15.4782 26172.7   3335.0   7.2617 26384.3
 20 10 2016  16 59  -15.4776 26172.3   3336.9   7.2659 26384.2
 20 10 2016  17 00  -15.4768 26172.0   3336.7   7.2654 26383.8
 20 10 2016  17 01  -15.4770 26171.4   3337.0   7.2663 26383.2
 20 10 2016  17 02  -15.4781 26170.8   3336.0   7.2644 26382.6
 20 10 2016  17 03  -15.4788 26170.3   3336.5   7.2655 26382.1
 20 10 2016  17 04  -15.4795 26169.8   3336.0   7.2646 26381.6
 20 10 2016  17 05  -15.4783 26169.8   3336.3   7.2652 26381.6
 20 10 2016  17 06  -15.4797 26168.9   3336.4   7.2657 26380.8
 20 10 2016  17 07  -15.4796 26168.8   3336.6   7.2662 26380.6
 20 10 2016  17 08  -15.4804 26168.2   3335.6   7.2642 26379.9
 20 10 2016  17 09  -15.4801 26167.7   3337.0   7.2673 26379.6
 20 10 2016  17 10  -15.4811 26166.8   3336.1   7.2657 26378.6
 20 10 2016  17 11  -15.4815 26166.2   3337.1   7.2680 26378.1
 20 10 2016  17 12  -15.4820 26165.5   3336.6   7.2672 26377.4
 20 10 2016  17 13  -15.4814 26164.7   3337.4   7.2691 26376.7
 20 10 2016  17 14  -15.4822 26164.2   3338.0   7.2706 26376.3
 20 10 2016  17 15  -15.4825 26163.5   3337.5   7.2695 26375.6
 20 10 2016  17 16  -15.4821 26163.1   3337.6   7.2699 26375.2
 20 10 2016  17 17  -15.4827 26162.8   3339.1   7.2731 26375.0
 20 10 2016  17 18  -15.4834 26162.1   3340.3   7.2759 26374.4
 20 10 2016  17 19  -15.4835 26162.1   3339.7   7.2747 26374.4
 20 10 2016  17 20  -15.4842 26161.1   3339.3   7.2742 26373.4
 20 10 2016  17 21  -15.4840 26160.9   3341.1   7.2781 26373.4
 20 10 2016  17 22  -15.4852 26159.9   3339.9   7.2757 26372.3
 20 10 2016  17 23  -15.4849 26160.0   3341.0   7.2780 26372.5
 20 10 2016  17 24  -15.4859 26159.3   3340.8   7.2779 26371.8
 20 10 2016  17 25  -15.4869 26158.7   3341.2   7.2788 26371.2
 20 10 2016  17 26  -15.4867 26158.0   3343.2   7.2834 26370.8
 20 10 2016  17 27  -15.4871 26157.7   3343.6   7.2842 26370.5
 20 10 2016  17 28  -15.4878 26157.6   3342.7   7.2823 26370.3
 20 10 2016  17 29  -15.4873 26156.8   3343.6   7.2845 26369.6
 20 10 2016  17 30  -15.4870 26156.4   3345.2   7.2882 26369.5
 20 10 2016  17 31  -15.4875 26155.8   3346.9   7.2919 26369.0
 20 10 2016  17 32  -15.4875 26155.4   3346.1   7.2903 26368.6
 20 10 2016  17 33  -15.4877 26155.1   3347.2   7.2927 26368.4
 20 10 2016  17 34  -15.4884 26154.4   3347.5   7.2937 26367.8
 20 10 2016  17 35  -15.4881 26154.2   3347.0   7.2926 26367.5
 20 10 2016  17 36  -15.4881 26153.9   3347.6   7.2940 26367.3
 20 10 2016  17 37  -15.4874 26153.3   3350.0   7.2993 26367.0
 20 10 2016  17 38  -15.4886 26153.3   3349.4   7.2980 26366.9
 20 10 2016  17 39  -15.4890 26152.3   3350.2   7.3000 26366.0
 20 10 2016  17 40  -15.4886 26152.9   3348.9   7.2970 26366.4
 20 10 2016  17 41  -15.4880 26152.4   3351.1   7.3020 26366.2
 20 10 2016  17 42  -15.4890 26151.4   3350.1   7.3001 26365.2
 20 10 2016  17 43  -15.4896 26151.1   3348.4   7.2966 26364.6
 20 10 2016  17 44  -15.4889 26150.8   3350.6   7.3013 26364.6
 20 10 2016  17 45  -15.4902 26150.5   3351.2   7.3026 26364.4
 20 10 2016  17 46  -15.4905 26150.1   3350.6   7.3014 26363.8
 20 10 2016  17 47  -15.4893 26150.1   3352.2   7.3049 26364.0
 20 10 2016  17 48  -15.4887 26150.3   3353.6   7.3079 26364.5
 20 10 2016  17 49  -15.4902 26149.9   3352.4   7.3054 26363.9
 20 10 2016  17 50  -15.4912 26148.8   3352.8   7.3066 26362.9
 20 10 2016  17 51  -15.4897 26148.8   3353.8   7.3087 26363.0
 20 10 2016  17 52  -15.4910 26148.2   3353.4   7.3080 26362.4
 20 10 2016  17 53  -15.4892 26148.4   3355.4   7.3123 26362.8
 20 10 2016  17 54  -15.4905 26148.6   3355.4   7.3122 26363.0
 20 10 2016  17 55  -15.4909 26148.1   3354.9   7.3113 26362.4
 20 10 2016  17 56  -15.4916 26148.0   3355.0   7.3117 26362.4
 20 10 2016  17 57  -15.4921 26147.7   3356.4   7.3147 26362.2
 20 10 2016  17 58  -15.4937 26148.0   3356.1   7.3140 26362.5
 20 10 2016  17 59  -15.4935 26147.2   3356.2   7.3144 26361.7
 20 10 2016  18 00  -15.4944 26147.4   3355.8   7.3135 26361.9
 20 10 2016  18 01  -15.4947 26146.6   3355.8   7.3137 26361.0
 20 10 2016  18 02  -15.4946 26146.0   3358.0   7.3186 26360.8
 20 10 2016  18 03  -15.4948 26146.4   3356.8   7.3160 26361.0
 20 10 2016  18 04  -15.4954 26146.3   3358.4   7.3195 26361.1
 20 10 2016  18 05  -15.4967 26145.6   3358.2   7.3192 26360.3
 20 10 2016  18 06  -15.4962 26145.5   3359.1   7.3211 26360.4
 20 10 2016  18 07  -15.4958 26145.3   3360.5   7.3243 26360.4
 20 10 2016  18 08  -15.4965 26145.0   3359.7   7.3226 26359.9
 20 10 2016  18 09  -15.4971 26144.4   3359.3   7.3218 26359.3
 20 10 2016  18 10  -15.4986 26144.1   3358.5   7.3203 26358.9
 20 10 2016  18 11  -15.4992 26143.5   3360.0   7.3236 26358.5
 20 10 2016  18 12  -15.4989 26143.6   3361.8   7.3275 26358.9
 20 10 2016  18 13  -15.5000 26143.3   3362.6   7.3293 26358.7
 20 10 2016  18 14  -15.5011 26142.6   3362.0   7.3282 26357.9
 20 10 2016  18 15  -15.5013 26142.2   3361.8   7.3279 26357.5
 20 10 2016  18 16  -15.5004 26142.6   3364.2   7.3328 26358.1
 20 10 2016  18 17  -15.5003 26142.6   3364.1   7.3328 26358.2
 20 10 2016  18 18  -15.5010 26142.6   3363.0   7.3302 26358.0
 20 10 2016  18 19  -15.5012 26142.2   3363.7   7.3318 26357.7
 20 10 2016  18 20  -15.5012 26142.3   3364.2   7.3330 26357.9
 20 10 2016  18 21  -15.5019 26141.6   3364.1   7.3330 26357.1
 20 10 2016  18 22  -15.5016 26141.5   3364.8   7.3344 26357.2
 20 10 2016  18 23  -15.5022 26140.9   3364.5   7.3339 26356.5
 20 10 2016  18 24  -15.5025 26140.7   3364.7   7.3344 26356.4
 20 10 2016  18 25  -15.5026 26140.4   3364.8   7.3347 26356.1
 20 10 2016  18 26  -15.5015 26140.4   3367.0   7.3396 26356.4
 20 10 2016  18 27  -15.5034 26140.1   3366.3   7.3382 26355.9
 20 10 2016  18 28  -15.5041 26139.9   3365.5   7.3365 26355.6
 20 10 2016  18 29  -15.5040 26140.0   3367.0   7.3397 26356.0
 20 10 2016  18 30  -15.5050 26139.5   3366.8   7.3393 26355.4
 20 10 2016  18 31  -15.5064 26139.1   3366.3   7.3385 26354.9
 20 10 2016  18 32  -15.5061 26138.6   3366.2   7.3384 26354.5
 20 10 2016  18 33  -15.5060 26138.1   3368.4   7.3432 26354.3
 20 10 2016  18 34  -15.5081 26137.2   3367.3   7.3411 26353.2
 20 10 2016  18 35  -15.5081 26137.4   3366.5   7.3394 26353.3
 20 10 2016  18 36  -15.5074 26137.0   3369.0   7.3448 26353.2
 20 10 2016  18 37  -15.5082 26136.6   3369.3   7.3456 26352.9
 20 10 2016  18 38  -15.5091 26136.5   3368.6   7.3440 26352.7
 20 10 2016  18 39  -15.5095 26135.9   3368.3   7.3436 26352.1
 20 10 2016  18 40  -15.5102 26135.9   3369.0   7.3450 26352.1
 20 10 2016  18 41  -15.5104 26135.1   3370.9   7.3495 26351.6
 20 10 2016  18 42  -15.5100 26135.4   3370.6   7.3486 26351.9
 20 10 2016  18 43  -15.5116 26134.8   3369.8   7.3472 26351.2
 20 10 2016  18 44  -15.5107 26134.8   3371.1   7.3501 26351.3
 20 10 2016  18 45  -15.5115 26134.5   3371.2   7.3503 26351.1
 20 10 2016  18 46  -15.5118 26133.9   3372.6   7.3534 26350.6
 20 10 2016  18 47  -15.5122 26133.9   3371.8   7.3516 26350.5
 20 10 2016  18 48  -15.5118 26133.6   3374.4   7.3574 26350.6
 20 10 2016  18 49  -15.5125 26133.2   3374.2   7.3571 26350.1
 20 10 2016  18 50  -15.5126 26132.8   3373.6   7.3558 26349.6
 20 10 2016  18 51  -15.5129 26132.2   3375.5   7.3601 26349.3
 20 10 2016  18 52  -15.5138 26131.9   3375.7   7.3607 26349.0
 20 10 2016  18 53  -15.5146 26132.5   3374.0   7.3568 26349.4
 20 10 2016  18 54  -15.5142 26131.9   3375.3   7.3598 26349.0
 20 10 2016  18 55  -15.5142 26132.2   3377.5   7.3644 26349.5
 20 10 2016  18 56  -15.5148 26131.8   3376.7   7.3629 26349.0
 20 10 2016  18 57  -15.5164 26131.3   3375.4   7.3603 26348.4
 20 10 2016  18 58  -15.5166 26130.8   3377.2   7.3642 26348.1
 20 10 2016  18 59  -15.5159 26130.7   3378.0   7.3659 26348.2
 20 10 2016  19 00  -15.5157 26131.0   3378.3   7.3665 26348.5
 20 10 2016  19 01  -15.5165 26130.7   3378.6   7.3672 26348.2
 20 10 2016  19 02  -15.5167 26130.4   3378.7   7.3675 26347.9
 20 10 2016  19 03  -15.5168 26130.5   3379.3   7.3689 26348.1
 20 10 2016  19 04  -15.5169 26130.2   3379.6   7.3696 26347.9
 20 10 2016  19 05  -15.5167 26130.2   3380.3   7.3710 26348.0
 20 10 2016  19 06  -15.5167 26130.2   3380.5   7.3715 26347.9
 20 10 2016  19 07  -15.5168 26129.9   3381.9   7.3745 26347.8
 20 10 2016  19 08  -15.5171 26130.3   3381.1   7.3729 26348.2
 20 10 2016  19 09  -15.5170 26130.1   3382.6   7.3761 26348.1
 20 10 2016  19 10  -15.5173 26130.0   3382.7   7.3763 26348.1
 20 10 2016  19 11  -15.5172 26130.1   3382.5   7.3759 26348.2
 20 10 2016  19 12  -15.5187 26129.6   3382.3   7.3754 26347.6
 20 10 2016  19 13  -15.5173 26129.5   3384.1   7.3794 26347.8
 20 10 2016  19 14  -15.5180 26129.6   3382.5   7.3760 26347.7
 20 10 2016  19 15  -15.5185 26129.2   3384.0   7.3794 26347.4
 20 10 2016  19 16  -15.5183 26129.2   3384.5   7.3805 26347.5
 20 10 2016  19 17  -15.5178 26129.5   3384.3   7.3800 26347.8
 20 10 2016  19 18  -15.5181 26129.2   3384.6   7.3806 26347.5
 20 10 2016  19 19  -15.5183 26129.3   3384.8   7.3811 26347.7
 20 10 2016  19 20  -15.5191 26129.1   3385.5   7.3826 26347.5
 20 10 2016  19 21  -15.5192 26128.8   3385.5   7.3826 26347.2
 20 10 2016  19 22  -15.5195 26129.2   3385.4   7.3824 26347.6
 20 10 2016  19 23  -15.5201 26128.8   3386.4   7.3846 26347.4
 20 10 2016  19 24  -15.5203 26128.7   3385.8   7.3833 26347.2
 20 10 2016  19 25  -15.5197 26129.0   3386.9   7.3856 26347.6
 20 10 2016  19 26  -15.5200 26129.1   3387.0   7.3859 26347.7
 20 10 2016  19 27  -15.5204 26129.0   3386.6   7.3850 26347.5
 20 10 2016  19 28  -15.5200 26128.8   3387.5   7.3870 26347.5
 20 10 2016  19 29  -15.5214 26128.3   3387.1   7.3863 26347.0
 20 10 2016  19 30  -15.5202 26128.5   3387.5   7.3871 26347.2
 20 10 2016  19 31  -15.5210 26128.5   3387.7   7.3876 26347.2
 20 10 2016  19 32  -15.5209 26128.3   3388.3   7.3888 26347.0
 20 10 2016  19 33  -15.5211 26128.0   3388.7   7.3898 26346.8
 20 10 2016  19 34  -15.5205 26128.2   3388.0   7.3882 26346.9
 20 10 2016  19 35  -15.5213 26127.8   3388.9   7.3904 26346.6
 20 10 2016  19 36  -15.5220 26127.5   3388.3   7.3890 26346.2
 20 10 2016  19 37  -15.5215 26127.8   3389.7   7.3921 26346.8
 20 10 2016  19 38  -15.5223 26127.3   3388.9   7.3903 26346.2
 20 10 2016  19 39  -15.5214 26127.1   3390.1   7.3930 26346.1
 20 10 2016  19 40  -15.5219 26127.3   3389.9   7.3925 26346.3
 20 10 2016  19 41  -15.5215 26127.8   3390.9   7.3947 26346.9
 20 10 2016  19 42  -15.5223 26127.6   3390.5   7.3939 26346.7
 20 10 2016  19 43  -15.5222 26128.2   3391.2   7.3952 26347.3
 20 10 2016  19 44  -15.5225 26128.1   3391.4   7.3957 26347.3
 20 10 2016  19 45  -15.5223 26128.4   3391.5   7.3958 26347.6
 20 10 2016  19 46  -15.5220 26128.8   3391.9   7.3964 26348.1
 20 10 2016  19 47  -15.5217 26129.4   3392.1   7.3968 26348.7
 20 10 2016  19 48  -15.5215 26129.8   3392.4   7.3972 26349.1
 20 10 2016  19 49  -15.5216 26130.2   3392.6   7.3976 26349.5
 20 10 2016  19 50  -15.5213 26130.9   3393.3   7.3989 26350.3
 20 10 2016  19 51  -15.5212 26131.6   3393.6   7.3993 26351.0
 20 10 2016  19 52  -15.5209 26132.3   3393.6   7.3992 26351.7
 20 10 2016  19 53  -15.5213 26132.5   3393.4   7.3988 26351.9
 20 10 2016  19 54  -15.5211 26132.9   3393.3   7.3983 26352.3
 20 10 2016  19 55  -15.5205 26133.0   3393.5   7.3988 26352.4
 20 10 2016  19 56  -15.5201 26132.2   3392.9   7.3978 26351.5
 20 10 2016  19 57  -15.5199 26131.8   3393.0   7.3980 26351.1
 20 10 2016  19 58  -15.5199 26131.4   3393.0   7.3981 26350.8
 20 10 2016  19 59  -15.5197 26130.9   3393.2   7.3987 26350.3
 20 10 2016  20 00  -15.5196 26131.2   3393.4   7.3990 26350.6
 20 10 2016  20 01  -15.5198 26130.7   3393.2   7.3988 26350.1
 20 10 2016  20 02  -15.5198 26130.3   3393.9   7.4003 26349.8
 20 10 2016  20 03  -15.5193 26130.7   3393.7   7.3999 26350.2
 20 10 2016  20 04  -15.5196 26130.6   3393.5   7.3995 26350.0
 20 10 2016  20 05  -15.5193 26130.2   3394.0   7.4006 26349.7
 20 10 2016  20 06  -15.5198 26129.9   3393.5   7.3995 26349.3
 20 10 2016  20 07  -15.5193 26129.7   3394.2   7.4012 26349.3
 20 10 2016  20 08  -15.5191 26129.2   3395.0   7.4030 26348.8
 20 10 2016  20 09  -15.5196 26129.3   3394.0   7.4008 26348.8
 20 10 2016  20 10  -15.5192 26129.1   3394.4   7.4018 26348.7
 20 10 2016  20 11  -15.5191 26129.3   3393.4   7.3995 26348.8
 20 10 2016  20 12  -15.5181 26129.2   3396.5   7.4063 26349.1
 20 10 2016  20 13  -15.5176 26129.7   3395.8   7.4045 26349.4
 20 10 2016  20 14  -15.5174 26129.8   3396.6   7.4064 26349.6
 20 10 2016  20 15  -15.5184 26129.3   3395.2   7.4035 26349.0
 20 10 2016  20 16  -15.5181 26129.1   3393.8   7.4004 26348.6
 20 10 2016  20 17  -15.5182 26129.2   3395.0   7.4030 26348.8
 20 10 2016  20 18  -15.5182 26129.5   3394.4   7.4017 26349.1
 20 10 2016  20 19  -15.5167 26129.7   3396.6   7.4064 26349.6
 20 10 2016  20 20  -15.5178 26129.5   3396.9   7.4070 26349.3
 20 10 2016  20 21  -15.5176 26129.8   3395.8   7.4046 26349.5
 20 10 2016  20 22  -15.5177 26129.7   3395.9   7.4048 26349.4
 20 10 2016  20 23  -15.5174 26129.9   3395.6   7.4042 26349.6
 20 10 2016  20 24  -15.5172 26129.5   3396.3   7.4058 26349.3
 20 10 2016  20 25  -15.5174 26129.4   3396.5   7.4061 26349.3
 20 10 2016  20 26  -15.5172 26129.5   3396.3   7.4057 26349.3
 20 10 2016  20 27  -15.5169 26129.7   3396.5   7.4062 26349.5
 20 10 2016  20 28  -15.5171 26129.4   3396.5   7.4063 26349.3
 20 10 2016  20 29  -15.5180 26129.3   3395.8   7.4047 26349.0
 20 10 2016  20 30  -15.5174 26129.5   3396.7   7.4066 26349.4
 20 10 2016  20 31  -15.5174 26129.8   3396.6   7.4064 26349.7
 20 10 2016  20 32  -15.5175 26129.8   3397.5   7.4082 26349.8
 20 10 2016  20 33  -15.5179 26130.0   3396.6   7.4063 26349.8
 20 10 2016  20 34  -15.5178 26130.2   3396.7   7.4065 26350.0
 20 10 2016  20 35  -15.5176 26130.2   3397.0   7.4070 26350.1
 20 10 2016  20 36  -15.5178 26130.1   3397.4   7.4081 26350.0
 20 10 2016  20 37  -15.5175 26130.2   3397.4   7.4079 26350.1
 20 10 2016  20 38  -15.5179 26130.2   3397.6   7.4084 26350.2
 20 10 2016  20 39  -15.5175 26130.4   3397.8   7.4088 26350.4
 20 10 2016  20 40  -15.5185 26130.3   3397.3   7.4076 26350.2
 20 10 2016  20 41  -15.5174 26130.8   3397.3   7.4075 26350.7
 20 10 2016  20 42  -15.5183 26130.8   3396.8   7.4064 26350.7
 20 10 2016  20 43  -15.5163 26131.3   3398.9   7.4108 26351.4
 20 10 2016  20 44  -15.5169 26131.5   3399.7   7.4125 26351.7
 20 10 2016  20 45  -15.5180 26131.4   3398.9   7.4109 26351.5
 20 10 2016  20 46  -15.5173 26131.7   3397.8   7.4084 26351.7
 20 10 2016  20 47  -15.5169 26131.8   3397.5   7.4078 26351.7
 20 10 2016  20 48  -15.5165 26131.8   3397.8   7.4083 26351.7
 20 10 2016  20 49  -15.5166 26131.4   3399.8   7.4127 26351.7
 20 10 2016  20 50  -15.5167 26131.5   3399.4   7.4120 26351.7
 20 10 2016  20 51  -15.5179 26131.4   3398.4   7.4098 26351.5
 20 10 2016  20 52  -15.5167 26131.8   3398.4   7.4096 26351.8
 20 10 2016  20 53  -15.5171 26132.0   3398.3   7.4094 26352.1
 20 10 2016  20 54  -15.5175 26132.0   3399.2   7.4114 26352.2
 20 10 2016  20 55  -15.5170 26132.2   3400.2   7.4134 26352.4
 20 10 2016  20 56  -15.5164 26132.5   3399.7   7.4122 26352.7
 20 10 2016  20 57  -15.5167 26132.7   3398.4   7.4093 26352.7
 20 10 2016  20 58  -15.5172 26132.3   3399.4   7.4116 26352.5
 20 10 2016  20 59  -15.5173 26132.2   3399.0   7.4108 26352.3
 20 10 2016  21 00  -15.5170 26132.1   3399.1   7.4111 26352.2
 20 10 2016  21 01  -15.5173 26132.2   3398.8   7.4103 26352.3
 20 10 2016  21 02  -15.5173 26132.2   3399.1   7.4111 26352.3
 20 10 2016  21 03  -15.5169 26132.6   3399.9   7.4126 26352.8
 20 10 2016  21 04  -15.5176 26132.6   3398.9   7.4105 26352.7
 20 10 2016  21 05  -15.5173 26132.7   3398.8   7.4103 26352.8
 20 10 2016  21 06  -15.5176 26132.8   3399.2   7.4110 26352.9
 20 10 2016  21 07  -15.5172 26133.0   3399.9   7.4126 26353.3
 20 10 2016  21 08  -15.5177 26133.2   3399.5   7.4115 26353.4
 20 10 2016  21 09  -15.5179 26133.3   3399.1   7.4107 26353.5
 20 10 2016  21 10  -15.5180 26133.3   3399.6   7.4118 26353.5
 20 10 2016  21 11  -15.5180 26133.6   3399.9   7.4123 26353.9
 20 10 2016  21 12  -15.5176 26134.5   3399.7   7.4118 26354.7
 20 10 2016  21 13  -15.5172 26135.2   3399.4   7.4109 26355.3
 20 10 2016  21 14  -15.5170 26135.5   3401.6   7.4156 26355.9
 20 10 2016  21 15  -15.5159 26136.2   3400.8   7.4135 26356.5
 20 10 2016  21 16  -15.5169 26136.3   3401.2   7.4145 26356.6
 20 10 2016  21 17  -15.5171 26136.6   3399.9   7.4115 26356.8
 20 10 2016  21 18  -15.5156 26136.4   3401.5   7.4151 26356.9
 20 10 2016  21 19  -15.5164 26136.6   3399.2   7.4101 26356.7
 20 10 2016  21 20  -15.5158 26136.8   3400.5   7.4127 26357.0
 20 10 2016  21 21  -15.5161 26137.0   3401.5   7.4149 26357.4
 20 10 2016  21 22  -15.5157 26137.6   3400.6   7.4127 26357.8
 20 10 2016  21 23  -15.5155 26138.0   3401.3   7.4141 26358.3
 20 10 2016  21 24  -15.5145 26138.5   3401.7   7.4150 26358.9
 20 10 2016  21 25  -15.5149 26138.6   3401.3   7.4141 26358.9
 20 10 2016  21 26  -15.5148 26138.4   3401.8   7.4152 26358.9
 20 10 2016  21 27  -15.5147 26138.6   3401.6   7.4147 26359.0
 20 10 2016  21 28  -15.5147 26138.8   3401.2   7.4138 26359.1
 20 10 2016  21 29  -15.5145 26139.1   3400.6   7.4124 26359.3
 20 10 2016  21 30  -15.5152 26138.8   3401.9   7.4152 26359.2
 20 10 2016  21 31  -15.5150 26139.3   3400.5   7.4121 26359.6
 20 10 2016  21 32  -15.5142 26139.5   3400.8   7.4126 26359.8
 20 10 2016  21 33  -15.5143 26139.2   3402.0   7.4152 26359.6
 20 10 2016  21 34  -15.5134 26139.6   3401.4   7.4138 26360.0
 20 10 2016  21 35  -15.5135 26139.7   3402.2   7.4156 26360.1
 20 10 2016  21 36  -15.5140 26139.6   3401.7   7.4145 26360.0
 20 10 2016  21 37  -15.5124 26140.1   3402.7   7.4166 26360.6
 20 10 2016  21 38  -15.5125 26140.4   3402.2   7.4154 26360.8
 20 10 2016  21 39  -15.5123 26140.6   3402.9   7.4168 26361.2
 20 10 2016  21 40  -15.5120 26141.0   3402.8   7.4164 26361.5
 20 10 2016  21 41  -15.5124 26141.3   3402.8   7.4166 26361.8
 20 10 2016  21 42  -15.5110 26141.7   3404.2   7.4193 26362.4
 20 10 2016  21 43  -15.5108 26142.0   3403.4   7.4175 26362.6
 20 10 2016  21 44  -15.5113 26141.8   3401.9   7.4145 26362.2
 20 10 2016  21 45  -15.5118 26141.0   3403.2   7.4174 26361.6
 20 10 2016  21 46  -15.5114 26141.4   3403.8   7.4185 26362.0
 20 10 2016  21 47  -15.5100 26142.1   3403.1   7.4169 26362.7
 20 10 2016  21 48  -15.5107 26142.4   3403.3   7.4173 26363.0
 20 10 2016  21 49  -15.5107 26142.7   3402.9   7.4162 26363.2
 20 10 2016  21 50  -15.5097 26142.8   3403.2   7.4170 26363.4
 20 10 2016  21 51  -15.5096 26142.4   3403.2   7.4170 26363.0
 20 10 2016  21 52  -15.5090 26142.2   3403.4   7.4175 26362.8
 20 10 2016  21 53  -15.5094 26141.9   3402.8   7.4163 26362.4
 20 10 2016  21 54  -15.5094 26141.9   3402.8   7.4162 26362.4
 20 10 2016  21 55  -15.5093 26142.2   3401.8   7.4141 26362.6
 20 10 2016  21 56  -15.5090 26142.3   3403.6   7.4178 26362.9
 20 10 2016  21 57  -15.5083 26142.8   3403.5   7.4175 26363.4
 20 10 2016  21 58  -15.5086 26142.6   3404.8   7.4204 26363.4
 20 10 2016  21 59  -15.5085 26143.1   3402.9   7.4162 26363.7
 20 10 2016  22 00  -15.5084 26142.9   3405.1   7.4211 26363.7
 20 10 2016  22 01  -15.5086 26143.2   3403.4   7.4173 26363.8
 20 10 2016  22 02  -15.5076 26143.3   3405.4   7.4214 26364.1
 20 10 2016  22 03  -15.5077 26143.4   3404.1   7.4187 26364.1
 20 10 2016  22 04  -15.5074 26143.4   3404.1   7.4187 26364.0
 20 10 2016  22 05  -15.5060 26143.6   3404.9   7.4203 26364.4
 20 10 2016  22 06  -15.5063 26143.6   3403.9   7.4182 26364.2
 20 10 2016  22 07  -15.5060 26143.8   3403.3   7.4169 26364.4
 20 10 2016  22 08  -15.5064 26143.7   3402.5   7.4152 26364.2
 20 10 2016  22 09  -15.5041 26144.0   3404.7   7.4198 26364.7
 20 10 2016  22 10  -15.5055 26143.8   3403.7   7.4178 26364.4
 20 10 2016  22 11  -15.5054 26144.2   3402.2   7.4144 26364.7
 20 10 2016  22 12  -15.5046 26144.4   3404.6   7.4196 26365.1
 20 10 2016  22 13  -15.5044 26144.9   3404.6   7.4193 26365.6
 20 10 2016  22 14  -15.5036 26145.3   3404.6   7.4192 26366.1
 20 10 2016  22 15  -15.5035 26145.4   3403.6   7.4171 26366.0
 20 10 2016  22 16  -15.5039 26145.0   3404.4   7.4188 26365.7
 20 10 2016  22 17  -15.5033 26145.2   3403.9   7.4177 26365.8
 20 10 2016  22 18  -15.5045 26144.9   3403.3   7.4164 26365.5
 20 10 2016  22 19  -15.5022 26145.5   3403.7   7.4173 26366.2
 20 10 2016  22 20  -15.5031 26145.1   3404.2   7.4183 26365.8
 20 10 2016  22 21  -15.5040 26145.1   3402.4   7.4146 26365.6
 20 10 2016  22 22  -15.5023 26145.2   3404.8   7.4197 26365.9
 20 10 2016  22 23  -15.5030 26145.0   3404.6   7.4194 26365.7
 20 10 2016  22 24  -15.5012 26145.7   3403.7   7.4171 26366.3
 20 10 2016  22 25  -15.5011 26145.8   3403.7   7.4170 26366.4
 20 10 2016  22 26  -15.5028 26145.0   3404.3   7.4186 26365.7
 20 10 2016  22 27  -15.5021 26145.5   3403.4   7.4166 26366.1
 20 10 2016  22 28  -15.5016 26145.6   3403.1   7.4160 26366.1
 20 10 2016  22 29  -15.5009 26145.6   3404.3   7.4186 26366.3
 20 10 2016  22 30  -15.5011 26145.7   3403.2   7.4161 26366.3
 20 10 2016  22 31  -15.5012 26145.7   3403.9   7.4175 26366.3
 20 10 2016  22 32  -15.5016 26145.7   3403.0   7.4156 26366.2
 20 10 2016  22 33  -15.5008 26145.7   3404.6   7.4191 26366.5
 20 10 2016  22 34  -15.5004 26146.1   3403.5   7.4166 26366.7
 20 10 2016  22 35  -15.5009 26146.1   3403.8   7.4174 26366.7
 20 10 2016  22 36  -15.5013 26146.3   3402.0   7.4134 26366.7
 20 10 2016  22 37  -15.5017 26146.1   3402.2   7.4138 26366.6
 20 10 2016  22 38  -15.5017 26146.0   3402.3   7.4141 26366.5
 20 10 2016  22 39  -15.5020 26145.9   3402.2   7.4138 26366.3
 20 10 2016  22 40  -15.5019 26145.7   3402.8   7.4152 26366.2
 20 10 2016  22 41  -15.5018 26145.9   3402.5   7.4145 26366.4
 20 10 2016  22 42  -15.5013 26145.9   3402.9   7.4154 26366.4
 20 10 2016  22 43  -15.5010 26146.1   3402.9   7.4153 26366.6
 20 10 2016  22 44  -15.5008 26145.9   3404.4   7.4186 26366.6
 20 10 2016  22 45  -15.4995 26146.6   3403.0   7.4153 26367.1
 20 10 2016  22 46  -15.5006 26146.4   3402.7   7.4149 26366.9
 20 10 2016  22 47  -15.4997 26146.5   3402.9   7.4152 26367.0
 20 10 2016  22 48  -15.4992 26146.6   3403.5   7.4165 26367.2
 20 10 2016  22 49  -15.4996 26146.3   3404.2   7.4181 26367.0
 20 10 2016  22 50  -15.5006 26146.2   3403.8   7.4172 26366.8
 20 10 2016  22 51  -15.5004 26146.4   3402.6   7.4146 26366.9
 20 10 2016  22 52  -15.5008 26146.2   3403.1   7.4157 26366.8
 20 10 2016  22 53  -15.4993 26146.3   3404.5   7.4188 26367.1
 20 10 2016  22 54  -15.4997 26146.5   3402.7   7.4147 26367.0
 20 10 2016  22 55  -15.5001 26146.5   3402.7   7.4147 26367.0
 20 10 2016  22 56  -15.5001 26146.3   3404.3   7.4184 26367.0
 20 10 2016  22 57  -15.4997 26146.7   3403.1   7.4156 26367.3
 20 10 2016  22 58  -15.4987 26147.1   3403.0   7.4154 26367.6
 20 10 2016  22 59  -15.4998 26146.5   3404.2   7.4180 26367.2
 20 10 2016  23 00  -15.5005 26146.4   3402.5   7.4144 26366.9
 20 10 2016  23 01  -15.4990 26146.5   3404.0   7.4177 26367.1
 20 10 2016  23 02  -15.4989 26146.7   3402.9   7.4151 26367.2
 20 10 2016  23 03  -15.4992 26146.6   3403.2   7.4159 26367.1
 20 10 2016  23 04  -15.5001 26146.0   3402.8   7.4151 26366.5
 20 10 2016  23 05  -15.4991 26146.4   3402.9   7.4152 26366.9
 20 10 2016  23 06  -15.4991 26146.2   3404.6   7.4189 26366.9
 20 10 2016  23 07  -15.4992 26146.0   3403.3   7.4162 26366.5
 20 10 2016  23 08  -15.4997 26146.2   3402.7   7.4149 26366.7
 20 10 2016  23 09  -15.4986 26146.3   3402.7   7.4148 26366.8
 20 10 2016  23 10  -15.4982 26146.0   3404.9   7.4196 26366.7
 20 10 2016  23 11  -15.4988 26146.1   3402.1   7.4137 26366.5
 20 10 2016  23 12  -15.4993 26146.1   3401.7   7.4128 26366.5
 20 10 2016  23 13  -15.4989 26145.6   3405.0   7.4201 26366.4
 20 10 2016  23 14  -15.4997 26145.7   3403.9   7.4176 26366.4
 20 10 2016  23 15  -15.4986 26146.1   3404.5   7.4188 26366.8
 20 10 2016  23 16  -15.4988 26146.3   3403.2   7.4158 26366.8
 20 10 2016  23 17  -15.4984 26146.1   3403.9   7.4176 26366.8
 20 10 2016  23 18  -15.4989 26146.0   3403.5   7.4166 26366.6
 20 10 2016  23 19  -15.4983 26146.1   3403.9   7.4175 26366.8
 20 10 2016  23 20  -15.4987 26145.9   3403.3   7.4162 26366.5
 20 10 2016  23 21  -15.4986 26145.7   3404.4   7.4187 26366.4
 20 10 2016  23 22  -15.4980 26145.8   3404.2   7.4183 26366.5
 20 10 2016  23 23  -15.4986 26146.0   3402.5   7.4146 26366.4
 20 10 2016  23 24  -15.4976 26145.8   3404.8   7.4196 26366.6
 20 10 2016  23 25  -15.4987 26145.7   3403.7   7.4171 26366.3
 20 10 2016  23 26  -15.4986 26145.7   3403.8   7.4173 26366.3
 20 10 2016  23 27  -15.4992 26145.2   3403.9   7.4177 26365.9
 20 10 2016  23 28  -15.4986 26145.1   3404.2   7.4184 26365.7
 20 10 2016  23 29  -15.4992 26144.8   3402.6   7.4150 26365.3
 20 10 2016  23 30  -15.4990 26144.6   3403.2   7.4164 26365.1
 20 10 2016  23 31  -15.4982 26144.6   3403.2   7.4164 26365.2
 20 10 2016  23 32  -15.4990 26144.2   3402.2   7.4143 26364.7
 20 10 2016  23 33  -15.4976 26144.3   3402.4   7.4148 26364.8
 20 10 2016  23 34  -15.4973 26144.0   3404.2   7.4187 26364.7
 20 10 2016  23 35  -15.4987 26143.7   3403.7   7.4177 26364.4
 20 10 2016  23 36  -15.4981 26143.8   3405.1   7.4207 26364.7
 20 10 2016  23 37  -15.4998 26143.7   3404.0   7.4184 26364.4
 20 10 2016  23 38  -15.4982 26144.4   3403.6   7.4172 26365.0
 20 10 2016  23 39  -15.4997 26144.0   3404.2   7.4187 26364.7
 20 10 2016  23 40  -15.5001 26144.2   3402.5   7.4151 26364.7
 20 10 2016  23 41  -15.4985 26144.3   3403.6   7.4172 26365.0
 20 10 2016  23 42  -15.4999 26143.9   3402.2   7.4146 26364.3
 20 10 2016  23 43  -15.4991 26143.8   3403.0   7.4163 26364.4
 20 10 2016  23 44  -15.4985 26143.6   3404.0   7.4184 26364.3
 20 10 2016  23 45  -15.4990 26143.8   3402.3   7.4147 26364.2
 20 10 2016  23 46  -15.4976 26143.7   3405.3   7.4211 26364.5
 20 10 2016  23 47  -15.4997 26143.6   3402.5   7.4153 26364.1
 20 10 2016  23 48  -15.4977 26144.1   3404.3   7.4189 26364.8
 20 10 2016  23 49  -15.4974 26144.1   3405.4   7.4213 26365.0
 20 10 2016  23 50  -15.4990 26144.1   3403.0   7.4160 26364.7
 20 10 2016  23 51  -15.4997 26143.7   3404.0   7.4184 26364.4
 20 10 2016  23 52  -15.4994 26143.7   3404.7   7.4199 26364.5
 20 10 2016  23 53  -15.4991 26144.2   3404.5   7.4193 26364.9
 20 10 2016  23 54  -15.4973 26144.9   3405.6   7.4215 26365.8
 20 10 2016  23 55  -15.4984 26144.4   3404.9   7.4201 26365.2
 20 10 2016  23 56  -15.4981 26145.0   3404.9   7.4198 26365.8
 20 10 2016  23 57  -15.4974 26145.1   3405.4   7.4209 26365.9
 20 10 2016  23 58  -15.4983 26144.9   3404.7   7.4196 26365.6
 20 10 2016  23 59  -15.4977 26145.0   3404.7   7.4196 26365.7
